Wavenumber,Intensity
600.1014,0.203033
601.9651,0.192837
603.8287,0.198516
605.6924,0.206371
607.5561,0.206510
609.4197,0.203237
611.2834,0.204978
613.1471,0.207479
615.0107,0.209067
616.8744,0.204769
618.7381,0.197806
620.6017,0.196596
622.4654,0.192465
624.3291,0.193693
626.1928,0.193235
628.0564,0.189557
629.9201,0.193772
631.7838,0.195129
633.6474,0.194273
635.5111,0.196622
637.3748,0.194828
639.2384,0.192861
641.1021,0.192987
642.9658,0.193326
644.8294,0.191597
646.6931,0.189661
648.5568,0.190815
650.4205,0.192240
652.2841,0.190922
654.1478,0.186431
656.0115,0.184157
657.8751,0.184363
659.7388,0.184054
661.6025,0.183310
663.4661,0.182803
665.3298,0.183528
667.1935,0.184493
669.0571,0.183588
670.9208,0.182726
672.7845,0.180862
674.6481,0.179129
676.5118,0.179007
678.3755,0.176301
680.2392,0.173692
682.1028,0.172040
683.9665,0.169419
685.8302,0.166145
687.6938,0.163810
689.5575,0.161519
691.4212,0.159677
693.2848,0.158421
695.1485,0.156027
697.0122,0.153130
698.8758,0.151591
700.7395,0.150955
702.6032,0.151138
704.4669,0.151340
706.3305,0.152228
708.1942,0.152741
710.0579,0.152699
711.9215,0.153566
713.7852,0.155494
715.6489,0.156609
717.5125,0.158069
719.3762,0.159366
721.2399,0.159845
723.1035,0.159935
724.9672,0.159667
726.8309,0.159175
728.6945,0.158211
730.5582,0.157101
732.4219,0.156420
734.2856,0.155557
736.1492,0.154714
738.0129,0.154519
739.8766,0.154892
741.7402,0.154985
743.6039,0.154401
745.4676,0.153228
747.3312,0.152093
749.1949,0.151437
751.0586,0.151288
752.9222,0.151407
754.7859,0.151374
756.6496,0.151501
758.5132,0.151405
760.3769,0.150647
762.2406,0.149389
764.1043,0.147913
765.9679,0.146515
767.8316,0.144581
769.6953,0.143065
771.5589,0.141755
773.4226,0.140273
775.2863,0.139558
777.1499,0.139153
779.0136,0.138553
780.8773,0.138072
782.7409,0.137844
784.6046,0.137931
786.4683,0.138244
788.3320,0.138642
790.1956,0.138275
792.0593,0.137675
793.9230,0.136996
795.7866,0.136893
797.6503,0.137178
799.5140,0.137441
801.3776,0.137734
803.2413,0.138023
805.1050,0.138563
806.9686,0.139170
808.8323,0.139711
810.6960,0.140645
812.5596,0.141549
814.4233,0.142517
816.2870,0.143283
818.1507,0.143661
820.0143,0.143777
821.8780,0.143579
823.7417,0.143571
825.6053,0.143755
827.4690,0.143908
829.3327,0.144446
831.1963,0.145590
833.0600,0.147044
834.9237,0.148818
836.7873,0.151027
838.6510,0.153223
840.5147,0.155773
842.3784,0.158478
844.2420,0.161365
846.1057,0.164732
847.9694,0.168443
849.8330,0.172208
851.6967,0.176248
853.5604,0.180060
855.4240,0.184059
857.2877,0.188107
859.1514,0.191951
861.0150,0.195727
862.8787,0.199878
864.7424,0.203851
866.6060,0.207608
868.4697,0.211208
870.3334,0.214813
872.1971,0.218412
874.0607,0.221735
875.9244,0.224398
877.7881,0.226665
879.6517,0.229311
881.5154,0.232456
883.3791,0.235613
885.2427,0.238833
887.1064,0.242602
888.9701,0.247010
890.8337,0.251598
892.6974,0.256237
894.5611,0.261000
896.4247,0.266112
898.2884,0.271294
900.1521,0.276384
902.0158,0.281198
903.8794,0.286006
905.7431,0.290651
907.6068,0.295037
909.4704,0.299046
911.3341,0.303223
913.1978,0.306933
915.0614,0.310381
916.9251,0.313533
918.7888,0.316670
920.6524,0.319826
922.5161,0.322903
924.3798,0.325641
926.2435,0.328412
928.1071,0.331364
929.9708,0.334661
931.8345,0.337979
933.6981,0.341336
935.5618,0.344731
937.4255,0.348553
939.2891,0.352307
941.1528,0.355872
943.0165,0.359193
944.8801,0.361977
946.7438,0.364238
948.6075,0.366026
950.4711,0.366870
952.3348,0.367169
954.1985,0.366857
956.0622,0.365979
957.9258,0.364530
959.7895,0.362651
961.6532,0.360594
963.5168,0.358751
965.3805,0.356883
967.2442,0.355165
969.1078,0.353569
970.9715,0.352361
972.8352,0.351436
974.6988,0.350706
976.5625,0.350008
978.4262,0.349410
980.2899,0.348721
982.1535,0.347797
984.0172,0.346077
985.8809,0.344042
987.7445,0.341550
989.6082,0.338499
991.4719,0.334907
993.3355,0.330625
995.1992,0.325878
997.0629,0.320901
998.9265,0.315650
1000.7902,0.310077
1002.6539,0.304109
1004.5175,0.298101
1006.3812,0.292022
1008.2449,0.285937
1010.1086,0.279751
1011.9722,0.273478
1013.8359,0.267131
1015.6996,0.260684
1017.5632,0.254235
1019.4269,0.247978
1021.2906,0.241878
1023.1542,0.236095
1025.0179,0.230365
1026.8816,0.224875
1028.7452,0.219482
1030.6089,0.214240
1032.4726,0.209158
1034.3362,0.204160
1036.1999,0.199259
1038.0636,0.194517
1039.9273,0.189884
1041.7909,0.185411
1043.6546,0.181145
1045.5183,0.177111
1047.3819,0.173380
1049.2456,0.169939
1051.1093,0.166668
1052.9729,0.163607
1054.8366,0.160684
1056.7003,0.157955
1058.5639,0.155268
1060.4276,0.152693
1062.2913,0.150249
1064.1550,0.147869
1066.0186,0.145534
1067.8823,0.143136
1069.7460,0.140813
1071.6096,0.138530
1073.4733,0.136126
1075.3370,0.133743
1077.2006,0.131259
1079.0643,0.128712
1080.9280,0.126186
1082.7916,0.123711
1084.6553,0.121157
1086.5190,0.118508
1088.3826,0.115850
1090.2463,0.113311
1092.1100,0.110807
1093.9737,0.108276
1095.8373,0.105746
1097.7010,0.103204
1099.5647,0.100708
1101.4283,0.098275
1103.2920,0.095902
1105.1557,0.093620
1107.0193,0.091253
1108.8830,0.088954
1110.7467,0.086733
1112.6103,0.084501
1114.4740,0.082393
1116.3377,0.080394
1118.2014,0.078281
1120.0650,0.076340
1121.9287,0.074640
1123.7924,0.072895
1125.6560,0.071164
1127.5197,0.069580
1129.3834,0.068151
1131.2470,0.066878
1133.1107,0.065603
1134.9744,0.064478
1136.8380,0.063476
1138.7017,0.062446
1140.5654,0.061508
1142.4290,0.060712
1144.2927,0.059935
1146.1564,0.059106
1148.0201,0.058268
1149.8837,0.057412
1151.7474,0.056550
1153.6111,0.055642
1155.4747,0.054674
1157.3384,0.053648
1159.2021,0.052607
1161.0657,0.051657
1162.9294,0.050517
1164.7931,0.049208
1166.6567,0.047897
1168.5204,0.046577
1170.3841,0.045244
1172.2477,0.043897
1174.1114,0.042551
1175.9751,0.041240
1177.8388,0.039952
1179.7024,0.038647
1181.5661,0.037375
1183.4298,0.036190
1185.2934,0.035118
1187.1571,0.034115
1189.0208,0.033180
1190.8844,0.032279
1192.7481,0.031356
1194.6118,0.030414
1196.4754,0.029520
1198.3391,0.028881
1200.2028,0.028232
1202.0665,0.027538
1203.9301,0.026891
1205.7938,0.026282
1207.6575,0.025651
1209.5211,0.025060
1211.3848,0.024623
1213.2485,0.024196
1215.1121,0.023805
1216.9758,0.023559
1218.8395,0.023355
1220.7031,0.023162
1222.5668,0.022885
1224.4305,0.022621
1226.2941,0.022401
1228.1578,0.022195
1230.0215,0.022016
1231.8852,0.021830
1233.7488,0.021656
1235.6125,0.021517
1237.4762,0.021308
1239.3398,0.021096
1241.2035,0.020927
1243.0672,0.020706
1244.9308,0.020477
1246.7945,0.020341
1248.6582,0.020181
1250.5218,0.019949
1252.3855,0.019702
1254.2492,0.019495
1256.1129,0.019346
1257.9765,0.019193
1259.8402,0.019122
1261.7039,0.018942
1263.5675,0.018738
1265.4312,0.018600
1267.2949,0.018479
1269.1585,0.018458
1271.0222,0.018509
1272.8859,0.018337
1274.7495,0.018053
1276.6132,0.017976
1278.4769,0.018057
1280.3405,0.018154
1282.2042,0.018103
1284.0679,0.018007
1285.9316,0.017986
1287.7952,0.018109
1289.6589,0.018177
1291.5226,0.018163
1293.3862,0.018122
1295.2499,0.018114
1297.1136,0.018133
1298.9772,0.018134
1300.8409,0.018163
1302.7046,0.018250
1304.5682,0.018311
1306.4319,0.018298
1308.2956,0.018409
1310.1592,0.018453
1312.0229,0.018688
1313.8866,0.019007
1315.7503,0.019076
1317.6139,0.019132
1319.4776,0.019222
1321.3413,0.018978
1323.2049,0.018630
1325.0686,0.018545
1326.9323,0.018612
1328.7959,0.018664
1330.6596,0.018679
1332.5233,0.018701
1334.3869,0.018773
1336.2506,0.019182
1338.1143,0.020021
1339.9780,0.020807
1341.8416,0.019993
1343.7053,0.019242
1345.5690,0.019166
1347.4326,0.019318
1349.2963,0.019462
1351.1600,0.019521
1353.0236,0.019658
1354.8873,0.019886
1356.7510,0.020063
1358.6146,0.020201
1360.4783,0.020770
1362.3420,0.022525
1364.2056,0.022665
1366.0693,0.021458
1367.9330,0.021563
1369.7967,0.021848
1371.6603,0.021756
1373.5240,0.022479
1375.3877,0.022806
1377.2513,0.022564
1379.1150,0.022707
1380.9787,0.022555
1382.8423,0.022639
1384.7060,0.022509
1386.5697,0.023909
1388.4333,0.024504
1390.2970,0.023646
1392.1607,0.023258
1394.0244,0.024794
1395.8880,0.025646
1397.7517,0.025677
1399.6154,0.025888
1401.4790,0.024495
1403.3427,0.024632
1405.2064,0.025380
1407.0700,0.025273
1408.9337,0.024864
1410.7974,0.025045
1412.6610,0.024980
1414.5247,0.025272
1416.3884,0.025599
1418.2520,0.027216
1420.1157,0.027252
1421.9794,0.025596
1423.8431,0.025854
1425.7067,0.025150
1427.5704,0.024707
1429.4341,0.025227
1431.2977,0.025484
1433.1614,0.024763
1435.0251,0.025011
1436.8887,0.027014
1438.7524,0.025447
1440.6161,0.024370
1442.4797,0.023974
1444.3434,0.024101
1446.2071,0.024331
1448.0707,0.025009
1449.9344,0.024336
1451.7981,0.024226
1453.6618,0.023680
1455.5254,0.024990
1457.3891,0.028253
1459.2528,0.026683
1461.1164,0.023562
1462.9801,0.022134
1464.8438,0.022971
1466.7074,0.022497
1468.5711,0.021576
1470.4348,0.021472
1472.2984,0.024273
1474.1621,0.023803
1476.0258,0.022851
1477.8895,0.021015
1479.7531,0.020128
1481.6168,0.020415
1483.4805,0.020043
1485.3441,0.020376
1487.2078,0.021722
1489.0715,0.023330
1490.9351,0.023855
1492.7988,0.021796
1494.6625,0.021559
1496.5261,0.023231
1498.3898,0.023998
1500.2535,0.023698
1502.1171,0.022723
1503.9808,0.022251
1505.8445,0.026473
1507.7082,0.031628
1509.5718,0.028889
1511.4355,0.026547
1513.2992,0.025156
1515.1628,0.025855
1517.0265,0.027673
1518.8902,0.026717
1520.7538,0.028837
1522.6175,0.029437
1524.4812,0.028227
1526.3448,0.027892
1528.2085,0.027506
1530.0722,0.026588
1531.9359,0.026016
1533.7995,0.027852
1535.6632,0.027008
1537.5269,0.026749
1539.3905,0.029239
1541.2542,0.031237
1543.1179,0.030367
1544.9815,0.029011
1546.8452,0.025929
1548.7089,0.025842
1550.5725,0.026283
1552.4362,0.025366
1554.2999,0.026098
1556.1635,0.025219
1558.0272,0.028108
1559.8909,0.030799
1561.7546,0.026105
1563.6182,0.023698
1565.4819,0.022874
1567.3456,0.022570
1569.2092,0.024184
1571.0729,0.024380
1572.9366,0.023072
1574.8002,0.023398
1576.6639,0.025287
1578.5276,0.024013
1580.3912,0.023246
1582.2549,0.023136
1584.1186,0.023543
1585.9822,0.023637
1587.8459,0.023937
1589.7096,0.024226
1591.5733,0.024538
1593.4369,0.025084
1595.3006,0.025525
1597.1643,0.025710
1599.0279,0.025879
1600.8916,0.026416
1602.7553,0.027043
1604.6189,0.027484
1606.4826,0.028035
1608.3463,0.028765
1610.2099,0.029161
1612.0736,0.029800
1613.9373,0.030112
1615.8010,0.032575
1617.6646,0.034444
1619.5283,0.033840
1621.3920,0.034058
1623.2556,0.035755
1625.1193,0.035842
1626.9830,0.036202
1628.8466,0.036739
1630.7103,0.036885
1632.5740,0.036801
1634.4376,0.038906
1636.3013,0.041554
1638.1650,0.040060
1640.0286,0.038538
1641.8923,0.037539
1643.7560,0.037495
1645.6197,0.038933
1647.4833,0.040778
1649.3470,0.038734
1651.2107,0.037842
1653.0743,0.041976
1654.9380,0.040168
1656.8017,0.036486
1658.6653,0.034299
1660.5290,0.033627
1662.3927,0.034062
1664.2563,0.032823
1666.1200,0.031407
1667.9837,0.031344
1669.8474,0.032301
1671.7110,0.030841
1673.5747,0.029224
1675.4384,0.029237
1677.3020,0.027405
1679.1657,0.026732
1681.0294,0.025489
1682.8930,0.026529
1684.7567,0.028564
1686.6204,0.025131
1688.4840,0.023408
1690.3477,0.021932
1692.2114,0.020471
1694.0750,0.019730
1695.9387,0.021327
1697.8024,0.019771
1699.6661,0.021599
1701.5297,0.019452
1703.3934,0.017785
1705.2571,0.017714
1707.1207,0.016785
1708.9844,0.015416
1710.8481,0.014209
1712.7117,0.014163
1714.5754,0.015337
1716.4391,0.017038
1718.3027,0.017927
1720.1664,0.014628
1722.0301,0.013222
1723.8937,0.012484
1725.7574,0.012024
1727.6211,0.011759
1729.4848,0.012490
1731.3484,0.012534
1733.2121,0.014617
1735.0758,0.015081
1736.9394,0.012609
1738.8031,0.012149
1740.6668,0.011547
1742.5304,0.012145
1744.3941,0.012006
1746.2578,0.011878
1748.1214,0.012208
1749.9851,0.012540
1751.8488,0.012725
1753.7125,0.010953
1755.5761,0.010537
1757.4398,0.010405
1759.3035,0.010219
1761.1671,0.011258
1763.0308,0.011340
1764.8945,0.010136
1766.7581,0.010160
1768.6218,0.010411
1770.4855,0.010757
1772.3491,0.012656
1774.2128,0.011855
1776.0765,0.010636
1777.9401,0.009462
1779.8038,0.010169
1781.6675,0.010426
1783.5312,0.010520
1785.3948,0.010515
1787.2585,0.009864
1789.1222,0.009586
1790.9858,0.010733
1792.8495,0.011484
1794.7132,0.010919
1796.5768,0.010451
1798.4405,0.010023
1800.3042,0.010669
1802.1678,0.010885
1804.0315,0.010213
1805.8952,0.009580
1807.7589,0.009724
1809.6225,0.010276
1811.4862,0.010497
1813.3499,0.009850
1815.2135,0.009365
1817.0772,0.009318
1818.9409,0.009473
1820.8045,0.009694
1822.6682,0.009789
1824.5319,0.010457
1826.3955,0.010395
1828.2592,0.010262
1830.1229,0.011049
1831.9865,0.010429
1833.8502,0.009727
1835.7139,0.009561
1837.5776,0.009851
1839.4412,0.009617
1841.3049,0.009604
1843.1686,0.010575
1845.0322,0.011662
1846.8959,0.011211
1848.7596,0.010396
1850.6232,0.009444
1852.4869,0.009526
1854.3506,0.009180
1856.2142,0.009384
1858.0779,0.009581
1859.9416,0.010020
1861.8052,0.009842
1863.6689,0.009592
1865.5326,0.009502
1867.3963,0.010486
1869.2599,0.011445
1871.1236,0.010964
1872.9873,0.009973
1874.8509,0.009616
1876.7146,0.009526
1878.5783,0.009593
1880.4419,0.009531
1882.3056,0.009684
1884.1693,0.009662
1886.0329,0.009686
1887.8966,0.009937
1889.7603,0.010533
1891.6240,0.010115
1893.4876,0.009951
1895.3513,0.009875
1897.2150,0.009869
1899.0786,0.009776
1900.9423,0.009688
1902.8060,0.009299
1904.6696,0.009427
1906.5333,0.009547
1908.3970,0.009889
1910.2606,0.010037
1912.1243,0.009902
1913.9880,0.009501
1915.8516,0.009446
1917.7153,0.010492
1919.5790,0.010968
1921.4427,0.010410
1923.3063,0.010209
1925.1700,0.010044
1927.0337,0.009702
1928.8973,0.009400
1930.7610,0.009806
1932.6247,0.009772
1934.4883,0.009652
1936.3520,0.009291
1938.2157,0.009635
1940.0793,0.009988
1941.9430,0.010394
1943.8067,0.009887
1945.6704,0.009999
1947.5340,0.009880
1949.3977,0.009563
1951.2614,0.009230
1953.1250,0.009284
1954.9887,0.009258
1956.8524,0.009260
1958.7160,0.009060
1960.5797,0.009357
1962.4434,0.009596
1964.3070,0.009704
1966.1707,0.009963
1968.0344,0.010309
1969.8980,0.009723
1971.7617,0.009525
1973.6254,0.008828
1975.4891,0.008566
1977.3527,0.009296
1979.2164,0.010260
1981.0801,0.010319
1982.9437,0.010359
1984.8074,0.009920
1986.6711,0.010504
1988.5347,0.011252
1990.3984,0.011427
1992.2621,0.011216
1994.1257,0.011060
1995.9894,0.010448
1997.8531,0.009918
1999.7167,0.009293
2001.5804,0.008991
2003.4441,0.009361
2005.3078,0.009652
2007.1714,0.008948
2009.0351,0.009483
2010.8988,0.010255
2012.7624,0.010158
2014.6261,0.010311
2016.4898,0.010504
2018.3534,0.009736
2020.2171,0.009443
2022.0808,0.008981
2023.9444,0.009225
2025.8081,0.009950
2027.6718,0.010376
2029.5355,0.010226
2031.3991,0.010496
2033.2628,0.010463
2035.1265,0.009494
2036.9901,0.009332
2038.8538,0.010280
2040.7175,0.010767
2042.5811,0.010930
2044.4448,0.009989
2046.3085,0.009662
2048.1721,0.010276
2050.0358,0.010694
2051.8995,0.010150
2053.7631,0.009872
2055.6268,0.009872
2057.4905,0.010246
2059.3542,0.010442
2061.2178,0.010224
2063.0815,0.009937
2064.9452,0.010327
2066.8088,0.010406
2068.6725,0.010458
2070.5362,0.010352
2072.3998,0.010518
2074.2635,0.010624
2076.1272,0.010646
2077.9908,0.010811
2079.8545,0.011025
2081.7182,0.010880
2083.5819,0.010713
2085.4455,0.010249
2087.3092,0.010100
2089.1729,0.010487
2091.0365,0.010596
2092.9002,0.010018
2094.7639,0.009991
2096.6275,0.010408
2098.4912,0.010661
2100.3549,0.010562
2102.2185,0.010492
2104.0822,0.010070
2105.9459,0.009879
2107.8095,0.009925
2109.6732,0.010292
2111.5369,0.010561
2113.4006,0.010469
2115.2642,0.010336
2117.1279,0.010267
2118.9916,0.009843
2120.8552,0.009787
2122.7189,0.010263
2124.5826,0.010508
2126.4462,0.010149
2128.3099,0.009596
2130.1736,0.009153
2132.0372,0.009535
2133.9009,0.009928
2135.7646,0.010013
2137.6282,0.010015
2139.4919,0.010114
2141.3556,0.009721
2143.2193,0.009477
2145.0829,0.009034
2146.9466,0.008718
2148.8103,0.008825
2150.6739,0.009359
2152.5376,0.009200
2154.4013,0.008599
2156.2649,0.008378
2158.1286,0.008675
2159.9923,0.009143
2161.8559,0.009894
2163.7196,0.010467
2165.5833,0.011127
2167.4470,0.010641
2169.3106,0.010179
2171.1743,0.010247
2173.0380,0.010164
2174.9016,0.009892
2176.7653,0.010342
2178.6290,0.011009
2180.4926,0.010829
2182.3563,0.010069
2184.2200,0.010590
2186.0836,0.011440
2187.9473,0.011421
2189.8110,0.010876
2191.6746,0.010835
2193.5383,0.010438
2195.4020,0.010088
2197.2657,0.010276
2199.1293,0.010562
2200.9930,0.010712
2202.8567,0.011205
2204.7203,0.011013
2206.5840,0.010615
2208.4477,0.010527
2210.3113,0.010859
2212.1750,0.011361
2214.0387,0.011536
2215.9023,0.011143
2217.7660,0.010992
2219.6297,0.011103
2221.4934,0.011200
2223.3570,0.011260
2225.2207,0.011418
2227.0844,0.011011
2228.9480,0.010973
2230.8117,0.011318
2232.6754,0.011485
2234.5390,0.011209
2236.4027,0.011143
2238.2664,0.011141
2240.1300,0.011150
2241.9937,0.011341
2243.8574,0.011379
2245.7210,0.010707
2247.5847,0.010421
2249.4484,0.011040
2251.3121,0.011613
2253.1757,0.011310
2255.0394,0.010779
2256.9031,0.010710
2258.7667,0.011043
2260.6304,0.010979
2262.4941,0.011167
2264.3577,0.011431
2266.2214,0.011410
2268.0851,0.011569
2269.9487,0.011820
2271.8124,0.011340
2273.6761,0.010947
2275.5397,0.011020
2277.4034,0.011087
2279.2671,0.011332
2281.1308,0.011980
2282.9944,0.012039
2284.8581,0.011614
2286.7218,0.011627
2288.5854,0.011986
2290.4491,0.012048
2292.3128,0.012047
2294.1764,0.011875
2296.0401,0.011659
2297.9038,0.011419
2299.7674,0.011378
2301.6311,0.011690
2303.4948,0.012269
2305.3585,0.012438
2307.2221,0.012403
2309.0858,0.012295
2310.9495,0.012387
2312.8131,0.012525
2314.6768,0.012241
2316.5405,0.011994
2318.4041,0.011979
2320.2678,0.012326
2322.1315,0.013294
2323.9951,0.014009
2325.8588,0.013848
2327.7225,0.013054
2329.5861,0.012423
2331.4498,0.012571
2333.3135,0.012758
2335.1772,0.012551
2337.0408,0.012622
2338.9045,0.012929
2340.7682,0.013322
2342.6318,0.013694
2344.4955,0.013194
2346.3592,0.012683
2348.2228,0.011916
2350.0865,0.011428
2351.9502,0.011965
2353.8138,0.011861
2355.6775,0.011522
2357.5412,0.012580
2359.4049,0.014330
2361.2685,0.015025
2363.1322,0.014892
2364.9959,0.014329
2366.8595,0.013757
2368.7232,0.012935
2370.5869,0.012701
2372.4505,0.012721
2374.3142,0.012541
2376.1779,0.012378
2378.0415,0.012275
2379.9052,0.011601
2381.7689,0.011133
2383.6325,0.011164
2385.4962,0.011226
2387.3599,0.010907
2389.2236,0.010628
2391.0872,0.010687
2392.9509,0.010754
2394.8146,0.010715
2396.6782,0.010851
2398.5419,0.010946
2400.4056,0.010975
2402.2692,0.010670
2404.1329,0.010476
2405.9966,0.010574
2407.8602,0.010650
2409.7239,0.010748
2411.5876,0.010985
2413.4512,0.011092
2415.3149,0.010990
2417.1786,0.010769
2419.0423,0.011059
2420.9059,0.011108
2422.7696,0.010820
2424.6333,0.010672
2426.4969,0.010770
2428.3606,0.011002
2430.2243,0.011108
2432.0879,0.010800
2433.9516,0.010930
2435.8153,0.011161
2437.6789,0.011288
2439.5426,0.011363
2441.4063,0.011275
2443.2700,0.011252
2445.1336,0.011530
2446.9973,0.011658
2448.8610,0.011294
2450.7246,0.011137
2452.5883,0.011482
2454.4520,0.011414
2456.3156,0.011207
2458.1793,0.011300
2460.0430,0.011299
2461.9066,0.011005
2463.7703,0.011003
2465.6340,0.011014
2467.4976,0.010972
2469.3613,0.011085
2471.2250,0.011190
2473.0887,0.011106
2474.9523,0.011151
2476.8160,0.011067
2478.6797,0.011010
2480.5433,0.011306
2482.4070,0.011368
2484.2707,0.011101
2486.1343,0.011151
2487.9980,0.011506
2489.8617,0.011392
2491.7253,0.011101
2493.5890,0.011419
2495.4527,0.011525
2497.3164,0.011358
2499.1800,0.011276
2501.0437,0.011252
2502.9074,0.011049
2504.7710,0.011246
2506.6347,0.011617
2508.4984,0.011549
2510.3620,0.011315
2512.2257,0.011568
2514.0894,0.011541
2515.9530,0.011400
2517.8167,0.011567
2519.6804,0.011725
2521.5440,0.011668
2523.4077,0.011357
2525.2714,0.011081
2527.1351,0.011443
2528.9987,0.011727
2530.8624,0.011477
2532.7261,0.011169
2534.5897,0.011119
2536.4534,0.011224
2538.3171,0.011517
2540.1807,0.011504
2542.0444,0.011488
2543.9081,0.011559
2545.7717,0.011599
2547.6354,0.011621
2549.4991,0.011706
2551.3627,0.011726
2553.2264,0.011628
2555.0901,0.011335
2556.9538,0.011148
2558.8174,0.011230
2560.6811,0.011423
2562.5448,0.011499
2564.4084,0.011638
2566.2721,0.011745
2568.1358,0.011808
2569.9994,0.011935
2571.8631,0.012143
2573.7268,0.012032
2575.5904,0.011390
2577.4541,0.011171
2579.3178,0.011666
2581.1815,0.011971
2583.0451,0.011923
2584.9088,0.011969
2586.7725,0.011910
2588.6361,0.011785
2590.4998,0.011731
2592.3635,0.011538
2594.2271,0.011620
2596.0908,0.011676
2597.9545,0.011941
2599.8181,0.012217
2601.6818,0.011901
2603.5455,0.011732
2605.4091,0.012059
2607.2728,0.012250
2609.1365,0.012088
2611.0002,0.011782
2612.8638,0.011706
2614.7275,0.011903
2616.5912,0.012213
2618.4548,0.012505
2620.3185,0.012504
2622.1822,0.011954
2624.0458,0.011750
2625.9095,0.011909
2627.7732,0.012129
2629.6368,0.012133
2631.5005,0.012010
2633.3642,0.011815
2635.2279,0.011869
2637.0915,0.012143
2638.9552,0.012160
2640.8189,0.012180
2642.6825,0.011989
2644.5462,0.011746
2646.4099,0.011851
2648.2735,0.012025
2650.1372,0.012347
2652.0009,0.012561
2653.8645,0.012311
2655.7282,0.011895
2657.5919,0.011931
2659.4555,0.012105
2661.3192,0.012073
2663.1829,0.012006
2665.0466,0.012178
2666.9102,0.012062
2668.7739,0.011735
2670.6376,0.011801
2672.5012,0.011984
2674.3649,0.012018
2676.2286,0.011941
2678.0922,0.011687
2679.9559,0.011740
2681.8196,0.011901
2683.6832,0.011822
2685.5469,0.011720
2687.4106,0.011803
2689.2742,0.012064
2691.1379,0.012248
2693.0016,0.012169
2694.8653,0.012235
2696.7289,0.012341
2698.5926,0.012240
2700.4563,0.012117
2702.3199,0.012161
2704.1836,0.012154
2706.0473,0.012180
2707.9109,0.012354
2709.7746,0.012375
2711.6383,0.012285
2713.5019,0.012272
2715.3656,0.012202
2717.2293,0.012290
2719.0930,0.012537
2720.9566,0.012594
2722.8203,0.012582
2724.6840,0.012339
2726.5476,0.012121
2728.4113,0.012318
2730.2750,0.012573
2732.1386,0.012551
2734.0023,0.012531
2735.8660,0.012612
2737.7296,0.012589
2739.5933,0.012698
2741.4570,0.012885
2743.3206,0.012975
2745.1843,0.012992
2747.0480,0.012974
2748.9117,0.012804
2750.7753,0.012776
2752.6390,0.012888
2754.5027,0.012802
2756.3663,0.012762
2758.2300,0.013002
2760.0937,0.013023
2761.9573,0.012847
2763.8210,0.012783
2765.6847,0.013012
2767.5483,0.013028
2769.4120,0.013147
2771.2757,0.013464
2773.1394,0.013659
2775.0030,0.013469
2776.8667,0.013190
2778.7304,0.013256
2780.5940,0.013361
2782.4577,0.013192
2784.3214,0.013191
2786.1850,0.013462
2788.0487,0.013455
2789.9124,0.013335
2791.7760,0.013340
2793.6397,0.013330
2795.5034,0.013750
2797.3670,0.013829
2799.2307,0.013552
2801.0944,0.013571
2802.9581,0.013788
2804.8217,0.014081
2806.6854,0.014047
2808.5491,0.013887
2810.4127,0.013936
2812.2764,0.014099
2814.1401,0.013978
2816.0037,0.013870
2817.8674,0.014156
2819.7311,0.014303
2821.5947,0.014382
2823.4584,0.014473
2825.3221,0.014405
2827.1857,0.014167
2829.0494,0.014145
2830.9131,0.014511
2832.7768,0.014810
2834.6404,0.014689
2836.5041,0.014811
2838.3678,0.015009
2840.2314,0.014957
2842.0951,0.014708
2843.9588,0.014833
2845.8224,0.015014
2847.6861,0.015272
2849.5498,0.015526
2851.4134,0.015348
2853.2771,0.015309
2855.1408,0.015593
2857.0045,0.015516
2858.8681,0.015470
2860.7318,0.015426
2862.5955,0.015414
2864.4591,0.015651
2866.3228,0.015770
2868.1865,0.015740
2870.0501,0.016201
2871.9138,0.016513
2873.7775,0.016411
2875.6411,0.016216
2877.5048,0.015943
2879.3685,0.015970
2881.2321,0.016403
2883.0958,0.016293
2884.9595,0.015959
2886.8232,0.015948
2888.6868,0.016157
2890.5505,0.016361
2892.4142,0.016329
2894.2778,0.016286
2896.1415,0.016366
2898.0052,0.016557
2899.8688,0.016753
2901.7325,0.016848
2903.5962,0.017085
2905.4598,0.017292
2907.3235,0.017059
2909.1872,0.016703
2911.0509,0.016851
2912.9145,0.017265
2914.7782,0.017476
2916.6419,0.017837
2918.5055,0.018011
2920.3692,0.017914
2922.2329,0.018034
2924.0965,0.017903
2925.9602,0.017683
2927.8239,0.017673
2929.6875,0.017971
2931.5512,0.017977
2933.4149,0.018057
2935.2785,0.018002
2937.1422,0.017710
2939.0059,0.017699
2940.8696,0.018173
2942.7332,0.018149
2944.5969,0.017910
2946.4606,0.017889
2948.3242,0.017372
2950.1879,0.017146
2952.0516,0.017344
2953.9152,0.017234
2955.7789,0.017270
2957.6426,0.017320
2959.5062,0.017179
2961.3699,0.017774
2963.2336,0.018239
2965.0972,0.018049
2966.9609,0.017843
2968.8246,0.017561
2970.6883,0.017239
2972.5519,0.016871
2974.4156,0.017250
2976.2793,0.017635
2978.1429,0.017534
2980.0066,0.017608
2981.8703,0.017601
2983.7339,0.017540
2985.5976,0.017404
2987.4613,0.017027
2989.3249,0.016920
2991.1886,0.017049
2993.0523,0.017282
2994.9160,0.017323
2996.7796,0.017576
2998.6433,0.017957
3000.5070,0.018013
3002.3706,0.018054
3004.2343,0.018431
3006.0980,0.018809
3007.9616,0.018456
3009.8253,0.018111
3011.6890,0.018530
3013.5526,0.018478
3015.4163,0.018392
3017.2800,0.018370
3019.1436,0.018350
3021.0073,0.018617
3022.8710,0.018434
3024.7347,0.018296
3026.5983,0.018776
3028.4620,0.019216
3030.3257,0.019290
3032.1893,0.019204
3034.0530,0.019682
3035.9167,0.019978
3037.7803,0.019628
3039.6440,0.019350
3041.5077,0.019714
3043.3713,0.020124
3045.2350,0.020455
3047.0987,0.020708
3048.9624,0.020372
3050.8260,0.020353
3052.6897,0.020739
3054.5534,0.020935
3056.4170,0.020788
3058.2807,0.020508
3060.1444,0.020714
3062.0080,0.020800
3063.8717,0.021024
3065.7354,0.021752
3067.5990,0.022206
3069.4627,0.021993
3071.3264,0.021719
3073.1900,0.021864
3075.0537,0.021748
3076.9174,0.021532
3078.7811,0.021648
3080.6447,0.021959
3082.5084,0.021847
3084.3721,0.022016
3086.2357,0.022614
3088.0994,0.022790
3089.9631,0.022480
3091.8267,0.022461
3093.6904,0.022571
3095.5541,0.022746
3097.4177,0.023308
3099.2814,0.023332
3101.1451,0.023309
3103.0087,0.023485
3104.8724,0.023657
3106.7361,0.023865
3108.5998,0.024010
3110.4634,0.023948
3112.3271,0.024100
3114.1908,0.024444
3116.0544,0.024968
3117.9181,0.024900
3119.7818,0.024506
3121.6454,0.024810
3123.5091,0.025365
3125.3728,0.025326
3127.2364,0.025542
3129.1001,0.025711
3130.9638,0.025367
3132.8275,0.025510
3134.6911,0.026025
3136.5548,0.026299
3138.4185,0.026069
3140.2821,0.026010
3142.1458,0.026676
3144.0095,0.026530
3145.8731,0.026330
3147.7368,0.026893
3149.6005,0.027920
3151.4641,0.027796
3153.3278,0.027567
3155.1915,0.028241
3157.0551,0.028137
3158.9188,0.027180
3160.7825,0.026944
3162.6462,0.027440
3164.5098,0.028288
3166.3735,0.029072
3168.2372,0.029231
3170.1008,0.028893
3171.9645,0.028934
3173.8282,0.029093
3175.6918,0.029538
3177.5555,0.029883
3179.4192,0.030250
3181.2828,0.030281
3183.1465,0.029742
3185.0102,0.029678
3186.8739,0.030486
3188.7375,0.030610
3190.6012,0.030348
3192.4649,0.030087
3194.3285,0.030744
3196.1922,0.031595
3198.0559,0.031378
3199.9195,0.030861
3201.7832,0.031114
3203.6469,0.031711
3205.5105,0.032087
3207.3742,0.032110
3209.2379,0.031921
3211.1015,0.031711
3212.9652,0.032212
3214.8289,0.032362
3216.6926,0.031958
3218.5562,0.031720
3220.4199,0.032652
3222.2836,0.033144
3224.1472,0.032119
3226.0109,0.032694
3227.8746,0.034178
3229.7382,0.033943
3231.6019,0.033388
3233.4656,0.033769
3235.3292,0.033684
3237.1929,0.033798
3239.0566,0.034032
3240.9202,0.033473
3242.7839,0.033908
3244.6476,0.034143
3246.5113,0.033789
3248.3749,0.034058
3250.2386,0.034382
3252.1023,0.034488
3253.9659,0.034398
3255.8296,0.034629
3257.6933,0.035203
3259.5569,0.034559
3261.4206,0.034440
3263.2843,0.034933
3265.1479,0.035530
3267.0116,0.035798
3268.8753,0.035904
3270.7390,0.035689
3272.6026,0.035017
3274.4663,0.034748
3276.3300,0.035004
3278.1936,0.035494
3280.0573,0.035653
3281.9210,0.035176
3283.7846,0.034876
3285.6483,0.035355
3287.5120,0.035977
3289.3756,0.036141
3291.2393,0.035657
3293.1030,0.035135
3294.9666,0.034779
3296.8303,0.035195
3298.6940,0.036032
3300.5577,0.035713
3302.4213,0.034571
3304.2850,0.033926
3306.1487,0.034549
3308.0123,0.035640
3309.8760,0.035531
3311.7397,0.035358
3313.6033,0.036133
3315.4670,0.036084
3317.3307,0.035515
3319.1943,0.034782
3321.0580,0.035258
3322.9217,0.035868
3324.7854,0.034785
3326.6490,0.033911
3328.5127,0.034772
3330.3764,0.035679
3332.2400,0.035927
3334.1037,0.035024
3335.9674,0.034404
3337.8310,0.034653
3339.6947,0.035169
3341.5584,0.035016
3343.4220,0.035657
3345.2857,0.035627
3347.1494,0.034564
3349.0130,0.034516
3350.8767,0.035071
3352.7404,0.034330
3354.6041,0.033923
3356.4677,0.034875
3358.3314,0.035006
3360.1951,0.034971
3362.0587,0.035018
3363.9224,0.034375
3365.7861,0.034605
3367.6497,0.035154
3369.5134,0.034865
3371.3771,0.034637
3373.2407,0.034871
3375.1044,0.034236
3376.9681,0.034560
3378.8317,0.035265
3380.6954,0.035872
3382.5591,0.036167
3384.4228,0.035804
3386.2864,0.035414
3388.1501,0.035011
3390.0138,0.034764
3391.8774,0.034383
3393.7411,0.033359
3395.6048,0.033667
3397.4684,0.033794
3399.3321,0.034067
3401.1958,0.034225
3403.0594,0.033721
3404.9231,0.034619
3406.7868,0.034121
3408.6505,0.032505
3410.5141,0.033093
3412.3778,0.033897
3414.2415,0.033749
3416.1051,0.032778
3417.9688,0.031834
3419.8325,0.032898
3421.6961,0.034189
3423.5598,0.033663
3425.4235,0.033050
3427.2871,0.032126
3429.1508,0.030075
3431.0145,0.030397
3432.8781,0.032020
3434.7418,0.031001
3436.6055,0.030144
3438.4692,0.030569
3440.3328,0.030952
3442.1965,0.031008
3444.0602,0.030312
3445.9238,0.029749
3447.7875,0.030488
3449.6512,0.030783
3451.5148,0.030694
3453.3785,0.030791
3455.2422,0.029455
3457.1058,0.029436
3458.9695,0.030014
3460.8332,0.029624
3462.6969,0.030369
3464.5605,0.030386
3466.4242,0.030040
3468.2879,0.029024
3470.1515,0.028361
3472.0152,0.028441
3473.8789,0.028345
3475.7425,0.027923
3477.6062,0.028582
3479.4699,0.028621
3481.3335,0.028270
3483.1972,0.029422
3485.0609,0.029373
3486.9245,0.028809
3488.7882,0.028792
3490.6519,0.027734
3492.5156,0.027339
3494.3792,0.027702
3496.2429,0.028339
3498.1066,0.027704
3499.9702,0.027482
3501.8339,0.028087
3503.6976,0.028272
3505.5612,0.027984
3507.4249,0.025852
3509.2886,0.025063
3511.1522,0.027508
3513.0159,0.028476
3514.8796,0.027161
3516.7432,0.026348
3518.6069,0.026548
3520.4706,0.026730
3522.3343,0.027003
3524.1979,0.027216
3526.0616,0.027896
3527.9253,0.028259
3529.7889,0.026591
3531.6526,0.025577
3533.5163,0.026269
3535.3799,0.027420
3537.2436,0.027925
3539.1073,0.027102
3540.9709,0.025569
3542.8346,0.023909
3544.6983,0.024740
3546.5620,0.026663
3548.4256,0.025604
3550.2893,0.025538
3552.1530,0.027023
3554.0166,0.026742
3555.8803,0.025650
3557.7440,0.024571
3559.6076,0.024326
3561.4713,0.024485
3563.3350,0.024704
3565.1986,0.025418
3567.0623,0.026823
3568.9260,0.027627
3570.7896,0.026932
3572.6533,0.024265
3574.5170,0.024473
3576.3807,0.024497
3578.2443,0.024063
3580.1080,0.024449
3581.9717,0.024151
3583.8353,0.023013
3585.6990,0.023429
3587.5627,0.025455
3589.4263,0.026504
3591.2900,0.025998
3593.1537,0.024000
3595.0173,0.023728
3596.8810,0.024702
3598.7447,0.023717
3600.6084,0.022334
3602.4720,0.023354
3604.3357,0.023258
3606.1994,0.022050
3608.0630,0.022882
3609.9267,0.023419
3611.7904,0.023535
3613.6540,0.023984
3615.5177,0.024742
3617.3814,0.024299
3619.2450,0.024212
3621.1087,0.024822
3622.9724,0.023695
3624.8360,0.021916
3626.6997,0.021834
3628.5634,0.023539
3630.4271,0.024857
3632.2907,0.024310
3634.1544,0.021547
3636.0181,0.020865
3637.8817,0.020468
3639.7454,0.020064
3641.6091,0.019894
3643.4727,0.019153
3645.3364,0.019037
3647.2001,0.019805
3649.0637,0.021664
3650.9274,0.022950
3652.7911,0.021802
3654.6547,0.019846
3656.5184,0.018120
3658.3821,0.018309
3660.2458,0.018078
3662.1094,0.016863
3663.9731,0.016139
3665.8368,0.015593
3667.7004,0.016255
3669.5641,0.017009
3671.4278,0.017673
3673.2914,0.019092
3675.1551,0.018965
3677.0188,0.018961
3678.8824,0.018991
3680.7461,0.015568
3682.6098,0.015150
3684.4735,0.013126
3686.3371,0.012469
3688.2008,0.013402
3690.0645,0.015540
3691.9281,0.016478
3693.7918,0.013844
3695.6555,0.012418
3697.5191,0.010740
3699.3828,0.010659
3701.2465,0.010365
3703.1101,0.009943
3704.9738,0.010425
3706.8375,0.009848
3708.7011,0.009280
3710.5648,0.009740
3712.4285,0.010949
3714.2922,0.010352
3716.1558,0.008769
3718.0195,0.007905
3719.8832,0.008275
3721.7468,0.008552
3723.6105,0.008322
3725.4742,0.008277
3727.3378,0.006901
3729.2015,0.006635
3731.0652,0.006016
3732.9288,0.006755
3734.7925,0.010212
3736.6562,0.010767
3738.5199,0.010259
3740.3835,0.008049
3742.2472,0.006975
3744.1109,0.007054
3745.9745,0.006151
3747.8382,0.008354
3749.7019,0.005172
3751.5655,0.007869
3753.4292,0.009756
3755.2929,0.009024
3757.1565,0.006992
3759.0202,0.006577
3760.8839,0.007282
3762.7475,0.006616
3764.6112,0.005908
3766.4749,0.005749
3768.3386,0.006877
3770.2022,0.005383
3772.0659,0.006246
3773.9296,0.006975
3775.7932,0.005240
3777.6569,0.005351
3779.5206,0.005806
3781.3842,0.006624
3783.2479,0.006626
3785.1116,0.005546
3786.9752,0.006292
3788.8389,0.006383
3790.7026,0.005520
3792.5662,0.005221
3794.4299,0.004924
3796.2936,0.004692
3798.1573,0.004620
3800.0209,0.005685
3801.8846,0.005009
3803.7483,0.008420
3805.6119,0.009050
3807.4756,0.006448
3809.3393,0.007832
3811.2029,0.006825
3813.0666,0.005028
3814.9303,0.005762
3816.7939,0.005386
3818.6576,0.007588
3820.5213,0.007302
3822.3850,0.006907
3824.2486,0.009470
3826.1123,0.007339
3827.9760,0.006139
3829.8396,0.006863
3831.7033,0.005630
3833.5670,0.005749
3835.4306,0.006563
3837.2943,0.006656
3839.1580,0.007900
3841.0216,0.008979
3842.8853,0.008400
3844.7490,0.007587
3846.6126,0.007271
3848.4763,0.005272
3850.3400,0.004254
3852.2037,0.005747
3854.0673,0.008535
3855.9310,0.011059
3857.7947,0.009222
3859.6583,0.006629
3861.5220,0.006234
3863.3857,0.005873
3865.2493,0.006718
3867.1130,0.006755
3868.9767,0.008021
3870.8403,0.007164
3872.7040,0.010138
3874.5677,0.008083
3876.4314,0.007454
3878.2950,0.006874
3880.1587,0.006001
3882.0224,0.008024
3883.8860,0.008729
3885.7497,0.006979
3887.6134,0.008281
3889.4770,0.008773
3891.3407,0.006827
3893.2044,0.006928
3895.0680,0.006594
3896.9317,0.005800
3898.7954,0.006569
3900.6590,0.007401
3902.5227,0.009073
3904.3864,0.008902
3906.2501,0.007712
3908.1137,0.006247
3909.9774,0.005715
3911.8411,0.006113
3913.7047,0.005919
3915.5684,0.006070
3917.4321,0.006298
3919.2957,0.007387
3921.1594,0.007528
3923.0231,0.006644
3924.8867,0.006571
3926.7504,0.007265
3928.6141,0.007842
3930.4777,0.006856
3932.3414,0.007514
3934.2051,0.008281
3936.0688,0.007896
3937.9324,0.006126
3939.7961,0.005956
3941.6598,0.006843
3943.5234,0.007213
3945.3871,0.007778
3947.2508,0.007540
3949.1144,0.006867
3950.9781,0.007201
3952.8418,0.006426
3954.7054,0.006155
3956.5691,0.006311
3958.4328,0.006644
3960.2965,0.006663
3962.1601,0.005935
3964.0238,0.005304
3965.8875,0.006258
3967.7511,0.006395
3969.6148,0.006538
3971.4785,0.006325
3973.3421,0.005919
3975.2058,0.005995
3977.0695,0.006589
3978.9331,0.006442
3980.7968,0.005997
3982.6605,0.005846
3984.5241,0.006354
3986.3878,0.006599
3988.2515,0.006745
3990.1152,0.006672
3991.9788,0.006551
3993.8425,0.005707
3995.7062,0.006013
3997.5698,0.006742
3999.4335,0.006656
4001.2972,0.006255
4003.1608,0.006484
4005.0245,0.006187
4006.8882,0.006745
4008.7518,0.006740
4010.6155,0.006675
4012.4792,0.006596
4014.3429,0.006217
4016.2065,0.005919
4018.0702,0.006654
4019.9339,0.006735
4021.7975,0.006560
4023.6612,0.006115
4025.5249,0.006211
4027.3885,0.006265
4029.2522,0.006221
4031.1159,0.005940
4032.9795,0.006694
4034.8432,0.006487
4036.7069,0.006916
4038.5705,0.006888
4040.4342,0.006532
4042.2979,0.006157
4044.1616,0.006377
4046.0252,0.006724
4047.8889,0.006479
4049.7526,0.006169
4051.6162,0.006354
4053.4799,0.006220
4055.3436,0.006564
4057.2072,0.007125
4059.0709,0.007376
4060.9346,0.005807
4062.7982,0.005485
4064.6619,0.005970
4066.5256,0.006356
4068.3892,0.006494
4070.2529,0.006594
4072.1166,0.006052
4073.9803,0.006465
4075.8439,0.006558
4077.7076,0.006621
4079.5713,0.006748
4081.4349,0.006969
4083.2986,0.006645
4085.1623,0.006621
4087.0259,0.006135
4088.8896,0.005914
4090.7533,0.006107
4092.6169,0.006204
4094.4806,0.006262
4096.3443,0.006779
4098.2080,0.006944
4100.0716,0.007004
