Wavenumber,Intensity
650.4205,0.002625
652.2841,0.003255
654.1478,0.002455
656.0115,0.002328
657.8751,0.002662
659.7388,0.002341
661.6025,0.001193
663.4661,0.001509
665.3298,0.002679
667.1935,0.002933
669.0571,0.002092
670.9208,0.001421
672.7845,0.001444
674.6481,0.001767
676.5118,0.002058
678.3755,0.002050
680.2392,0.001992
682.1028,0.002201
683.9665,0.002707
685.8302,0.003040
687.6938,0.002418
689.5575,0.002153
691.4212,0.002557
693.2848,0.003001
695.1485,0.003362
697.0122,0.003057
698.8758,0.002322
700.7395,0.001774
702.6032,0.001436
704.4669,0.001500
706.3305,0.001755
708.1942,0.001701
710.0579,0.001602
711.9215,0.001613
713.7852,0.001498
715.6489,0.002006
717.5125,0.002497
719.3762,0.002424
721.2399,0.002367
723.1035,0.002049
724.9672,0.001770
726.8309,0.001888
728.6945,0.001625
730.5582,0.001711
732.4219,0.002158
734.2856,0.002393
736.1492,0.002683
738.0129,0.002430
739.8766,0.001958
741.7402,0.001637
743.6039,0.001746
745.4676,0.002353
747.3312,0.002437
749.1949,0.002262
751.0586,0.002513
752.9222,0.002867
754.7859,0.002750
756.6496,0.002698
758.5132,0.003215
760.3769,0.003443
762.2406,0.003062
764.1043,0.003054
765.9679,0.003638
767.8316,0.003901
769.6953,0.003756
771.5589,0.003942
773.4226,0.004416
775.2863,0.004682
777.1499,0.005000
779.0136,0.005069
780.8773,0.004635
782.7409,0.004085
784.6046,0.003951
786.4683,0.003779
788.3320,0.003523
790.1956,0.003499
792.0593,0.003597
793.9230,0.004122
795.7866,0.004699
797.6503,0.004841
799.5140,0.004532
801.3776,0.003863
803.2413,0.003250
805.1050,0.002893
806.9686,0.002396
808.8323,0.001885
810.6960,0.001345
812.5596,0.000897
814.4233,0.001028
816.2870,0.001139
818.1507,0.001008
820.0143,0.000950
821.8780,0.000613
823.7417,0.000565
825.6053,0.000913
827.4690,0.000991
829.3327,0.000945
831.1963,0.000851
833.0600,0.000493
834.9237,0.000459
836.7873,0.000891
838.6510,0.001040
840.5147,0.001042
842.3784,0.001192
844.2420,0.001150
846.1057,0.000965
847.9694,0.001018
849.8330,0.001212
851.6967,0.001297
853.5604,0.001287
855.4240,0.001338
857.2877,0.001445
859.1514,0.001378
861.0150,0.001290
862.8787,0.001296
864.7424,0.001380
866.6060,0.001457
868.4697,0.001478
870.3334,0.001535
872.1971,0.001532
874.0607,0.001549
875.9244,0.001812
877.7881,0.001936
879.6517,0.001812
881.5154,0.001751
883.3791,0.001790
885.2427,0.001810
887.1064,0.001703
888.9701,0.001715
890.8337,0.001876
892.6974,0.001998
894.5611,0.002068
896.4247,0.002073
898.2884,0.002008
900.1521,0.002016
902.0158,0.002162
903.8794,0.002231
905.7431,0.002089
907.6068,0.002028
909.4704,0.002244
911.3341,0.002390
913.1978,0.002349
915.0614,0.002328
916.9251,0.002346
918.7888,0.002371
920.6524,0.002462
922.5161,0.002505
924.3798,0.002459
926.2435,0.002412
928.1071,0.002430
929.9708,0.002509
931.8345,0.002531
933.6981,0.002475
935.5618,0.002475
937.4255,0.002601
939.2891,0.002753
941.1528,0.002942
943.0165,0.003081
944.8801,0.002976
946.7438,0.002818
948.6075,0.002873
950.4711,0.002974
952.3348,0.002937
954.1985,0.002904
956.0622,0.002965
957.9258,0.003005
959.7895,0.003053
961.6532,0.003073
963.5168,0.003082
965.3805,0.003102
967.2442,0.003124
969.1078,0.003221
970.9715,0.003245
972.8352,0.003216
974.6988,0.003126
976.5625,0.003135
978.4262,0.003278
980.2899,0.003365
982.1535,0.003413
984.0172,0.003488
985.8809,0.003627
987.7445,0.003711
989.6082,0.003768
991.4719,0.003853
993.3355,0.003890
995.1992,0.003950
997.0629,0.004087
998.9265,0.004095
1000.7902,0.004005
1002.6539,0.004037
1004.5175,0.004138
1006.3812,0.004201
1008.2449,0.004309
1010.1086,0.004395
1011.9722,0.004379
1013.8359,0.004456
1015.6996,0.004593
1017.5632,0.004658
1019.4269,0.004724
1021.2906,0.004768
1023.1542,0.004816
1025.0179,0.004975
1026.8816,0.005138
1028.7452,0.005213
1030.6089,0.005267
1032.4726,0.005391
1034.3362,0.005615
1036.1999,0.005759
1038.0636,0.005825
1039.9273,0.005949
1041.7909,0.006097
1043.6546,0.006285
1045.5183,0.006403
1047.3819,0.006439
1049.2456,0.006596
1051.1093,0.006847
1052.9729,0.006960
1054.8366,0.007022
1056.7003,0.007231
1058.5639,0.007441
1060.4276,0.007542
1062.2913,0.007624
1064.1550,0.007677
1066.0186,0.007681
1067.8823,0.007660
1069.7460,0.007606
1071.6096,0.007658
1073.4733,0.007840
1075.3370,0.007970
1077.2006,0.008073
1079.0643,0.008154
1080.9280,0.008138
1082.7916,0.008041
1084.6553,0.007935
1086.5190,0.007874
1088.3826,0.007765
1090.2463,0.007653
1092.1100,0.007575
1093.9737,0.007456
1095.8373,0.007282
1097.7010,0.007058
1099.5647,0.006888
1101.4283,0.006751
1103.2920,0.006573
1105.1557,0.006417
1107.0193,0.006275
1108.8830,0.006095
1110.7467,0.005906
1112.6103,0.005807
1114.4740,0.005695
1116.3377,0.005546
1118.2014,0.005409
1120.0650,0.005219
1121.9287,0.005059
1123.7924,0.004984
1125.6560,0.004942
1127.5197,0.004862
1129.3834,0.004705
1131.2470,0.004533
1133.1107,0.004442
1134.9744,0.004429
1136.8380,0.004376
1138.7017,0.004253
1140.5654,0.004182
1142.4290,0.004098
1144.2927,0.003930
1146.1564,0.003805
1148.0201,0.003702
1149.8837,0.003579
1151.7474,0.003442
1153.6111,0.003237
1155.4747,0.003171
1157.3384,0.003275
1159.2021,0.003412
1161.0657,0.003587
1162.9294,0.003671
1164.7931,0.003624
1166.6567,0.003539
1168.5204,0.003422
1170.3841,0.003193
1172.2477,0.002881
1174.1114,0.002682
1175.9751,0.002611
1177.8388,0.002531
1179.7024,0.002508
1181.5661,0.002452
1183.4298,0.002336
1185.2934,0.002317
1187.1571,0.002344
1189.0208,0.002330
1190.8844,0.002231
1192.7481,0.002146
1194.6118,0.002162
1196.4754,0.002164
1198.3391,0.002040
1200.2028,0.001944
1202.0665,0.001883
1203.9301,0.001835
1205.7938,0.001780
1207.6575,0.001689
1209.5211,0.001550
1211.3848,0.001382
1213.2485,0.001318
1215.1121,0.001241
1216.9758,0.001082
1218.8395,0.000994
1220.7031,0.000966
1222.5668,0.000938
1224.4305,0.000873
1226.2941,0.000779
1228.1578,0.000701
1230.0215,0.000628
1231.8852,0.000643
1233.7488,0.000681
1235.6125,0.000609
1237.4762,0.000528
1239.3398,0.000511
1241.2035,0.000514
1243.0672,0.000477
1244.9308,0.000440
1246.7945,0.000453
1248.6582,0.000462
1250.5218,0.000417
1252.3855,0.000379
1254.2492,0.000374
1256.1129,0.000343
1257.9765,0.000319
1259.8402,0.000247
1261.7039,0.000250
1263.5675,0.000349
1265.4312,0.000385
1267.2949,0.000412
1269.1585,0.000389
1271.0222,0.000316
1272.8859,0.000305
1274.7495,0.000340
1276.6132,0.000319
1278.4769,0.000331
1280.3405,0.000385
1282.2042,0.000421
1284.0679,0.000384
1285.9316,0.000237
1287.7952,0.000124
1289.6589,0.000194
1291.5226,0.000279
1293.3862,0.000286
1295.2499,0.000278
1297.1136,0.000262
1298.9772,0.000250
1300.8409,0.000277
1302.7046,0.000302
1304.5682,0.000297
1306.4319,0.000271
1308.2956,0.000265
1310.1592,0.000233
1312.0229,0.000174
1313.8866,0.000229
1315.7503,0.000321
1317.6139,0.000258
1319.4776,0.000170
1321.3413,0.000188
1323.2049,0.000202
1325.0686,0.000162
1326.9323,0.000173
1328.7959,0.000193
1330.6596,0.000179
1332.5233,0.000222
1334.3869,0.000228
1336.2506,0.000204
1338.1143,0.000176
1339.9780,0.000172
1341.8416,0.000201
1343.7053,0.000220
1345.5690,0.000222
1347.4326,0.000201
1349.2963,0.000177
1351.1600,0.000204
1353.0236,0.000257
1354.8873,0.000277
1356.7510,0.000283
1358.6146,0.000294
1360.4783,0.000249
1362.3420,0.000202
1364.2056,0.000269
1366.0693,0.000316
1367.9330,0.000330
1369.7967,0.000368
1371.6603,0.000251
1373.5240,0.000203
1375.3877,0.000340
1377.2513,0.000335
1379.1150,0.000241
1380.9787,0.000137
1382.8423,0.000131
1384.7060,0.000178
1386.5697,0.000104
1388.4333,0.000151
1390.2970,0.000241
1392.1607,0.000205
1394.0244,0.000217
1395.8880,0.000330
1397.7517,0.000349
1399.6154,0.000337
1401.4790,0.000370
1403.3427,0.000316
1405.2064,0.000305
1407.0700,0.000303
1408.9337,0.000336
1410.7974,0.000371
1412.6610,0.000375
1414.5247,0.000259
1416.3884,0.000139
1418.2520,0.000206
1420.1157,0.000436
1421.9794,0.000389
1423.8431,0.000269
1425.7067,0.000297
1427.5704,0.000210
1429.4341,0.000222
1431.2977,0.000317
1433.1614,0.000308
1435.0251,0.000311
1436.8887,0.000403
1438.7524,0.000525
1440.6161,0.000446
1442.4797,0.000355
1444.3434,0.000223
1446.2071,0.000222
1448.0707,0.000310
1449.9344,0.000341
1451.7981,0.000355
1453.6618,0.000291
1455.5254,0.000117
1457.3891,0.000397
1459.2528,0.000668
1461.1164,0.000418
1462.9801,0.000199
1464.8438,0.000316
1466.7074,0.000521
1468.5711,0.000364
1470.4348,0.000137
1472.2984,0.000135
1474.1621,0.000306
1476.0258,0.000321
1477.8895,0.000386
1479.7531,0.000347
1481.6168,0.000375
1483.4805,0.000434
1485.3441,0.000290
1487.2078,0.000187
1489.0715,0.000319
1490.9351,0.000545
1492.7988,0.000663
1494.6625,0.000424
1496.5261,0.000289
1498.3898,0.000459
1500.2535,0.000540
1502.1171,0.000397
1503.9808,0.000012
1505.8445,-0.000146
1507.7082,0.000574
1509.5718,0.000796
1511.4355,0.000466
1513.2992,0.000286
1515.1628,0.000256
1517.0265,0.000335
1518.8902,0.000334
1520.7538,0.000185
1522.6175,0.000293
1524.4812,0.000236
1526.3448,0.000312
1528.2085,0.000588
1530.0722,0.000441
1531.9359,0.000243
1533.7995,0.000336
1535.6632,0.000555
1537.5269,0.000320
1539.3905,0.000080
1541.2542,0.000307
1543.1179,0.000521
1544.9815,0.000616
1546.8452,0.000549
1548.7089,0.000423
1550.5725,0.000496
1552.4362,0.000399
1554.2999,0.000075
1556.1635,-0.000061
1558.0272,-0.000244
1559.8909,0.000577
1561.7546,0.000971
1563.6182,0.000698
1565.4819,0.000558
1567.3456,0.000400
1569.2092,0.000349
1571.0729,0.000553
1572.9366,0.000546
1574.8002,0.000323
1576.6639,0.000401
1578.5276,0.000614
1580.3912,0.000591
1582.2549,0.000635
1584.1186,0.000529
1585.9822,0.000463
1587.8459,0.000618
1589.7096,0.000749
1591.5733,0.000766
1593.4369,0.000718
1595.3006,0.000654
1597.1643,0.000693
1599.0279,0.000635
1600.8916,0.000506
1602.7553,0.000528
1604.6189,0.000560
1606.4826,0.000587
1608.3463,0.000667
1610.2099,0.000645
1612.0736,0.000548
1613.9373,0.000523
1615.8010,0.000483
1617.6646,0.000535
1619.5283,0.000564
1621.3920,0.000527
1623.2556,0.000596
1625.1193,0.000765
1626.9830,0.000536
1628.8466,0.000370
1630.7103,0.000453
1632.5740,0.000384
1634.4376,0.000269
1636.3013,0.000647
1638.1650,0.000822
1640.0286,0.000732
1641.8923,0.000605
1643.7560,0.000409
1645.6197,0.000374
1647.4833,0.000508
1649.3470,0.000570
1651.2107,0.000190
1653.0743,0.000242
1654.9380,0.001015
1656.8017,0.000992
1658.6653,0.000686
1660.5290,0.000514
1662.3927,0.000713
1664.2563,0.000722
1666.1200,0.000470
1667.9837,0.000387
1669.8474,0.000495
1671.7110,0.000599
1673.5747,0.000446
1675.4384,0.000552
1677.3020,0.000936
1679.1657,0.000759
1681.0294,0.000556
1682.8930,0.000510
1684.7567,0.000839
1686.6204,0.000914
1688.4840,0.000673
1690.3477,0.000736
1692.2114,0.000689
1694.0750,0.000457
1695.9387,0.000365
1697.8024,0.000440
1699.6661,0.000200
1701.5297,0.000564
1703.3934,0.000605
1705.2571,0.000499
1707.1207,0.000722
1708.9844,0.000915
1710.8481,0.000836
1712.7117,0.000699
1714.5754,0.000570
1716.4391,0.000450
1718.3027,0.000675
1720.1664,0.000862
1722.0301,0.000847
1723.8937,0.000846
1725.7574,0.000787
1727.6211,0.000713
1729.4848,0.000638
1731.3484,0.000466
1733.2121,0.000390
1735.0758,0.000979
1736.9394,0.001033
1738.8031,0.000513
1740.6668,0.000628
1742.5304,0.000824
1744.3941,0.000874
1746.2578,0.000786
1748.1214,0.000656
1749.9851,0.000673
1751.8488,0.000828
1753.7125,0.000663
1755.5761,0.000479
1757.4398,0.000659
1759.3035,0.000755
1761.1671,0.000722
1763.0308,0.000875
1764.8945,0.000956
1766.7581,0.000739
1768.6218,0.000664
1770.4855,0.000719
1772.3491,0.000738
1774.2128,0.000813
1776.0765,0.000762
1777.9401,0.000715
1779.8038,0.000620
1781.6675,0.000649
1783.5312,0.000800
1785.3948,0.000857
1787.2585,0.000882
1789.1222,0.000761
1790.9858,0.000669
1792.8495,0.000936
1794.7132,0.000983
1796.5768,0.000712
1798.4405,0.000706
1800.3042,0.000816
1802.1678,0.000939
1804.0315,0.001041
1805.8952,0.001082
1807.7589,0.000922
1809.6225,0.000703
1811.4862,0.000622
1813.3499,0.000727
1815.2135,0.000722
1817.0772,0.000669
1818.9409,0.000873
1820.8045,0.001009
1822.6682,0.000936
1824.5319,0.000859
1826.3955,0.000690
1828.2592,0.000709
1830.1229,0.001120
1831.9865,0.001292
1833.8502,0.000970
1835.7139,0.000884
1837.5776,0.001015
1839.4412,0.000893
1841.3049,0.000670
1843.1686,0.000575
1845.0322,0.000815
1846.8959,0.001031
1848.7596,0.001006
1850.6232,0.000928
1852.4869,0.000969
1854.3506,0.000916
1856.2142,0.000883
1858.0779,0.001085
1859.9416,0.001003
1861.8052,0.001018
1863.6689,0.001066
1865.5326,0.000899
1867.3963,0.000760
1869.2599,0.000904
1871.1236,0.000882
1872.9873,0.000798
1874.8509,0.001152
1876.7146,0.001463
1878.5783,0.001303
1880.4419,0.001202
1882.3056,0.001025
1884.1693,0.000822
1886.0329,0.000713
1887.8966,0.000762
1889.7603,0.000892
1891.6240,0.001008
1893.4876,0.001213
1895.3513,0.001489
1897.2150,0.001372
1899.0786,0.001239
1900.9423,0.001326
1902.8060,0.001054
1904.6696,0.000828
1906.5333,0.000773
1908.3970,0.000818
1910.2606,0.001061
1912.1243,0.000942
1913.9880,0.000918
1915.8516,0.001246
1917.7153,0.001297
1919.5790,0.001073
1921.4427,0.000980
1923.3063,0.000764
1925.1700,0.000793
1927.0337,0.001363
1928.8973,0.001799
1930.7610,0.001578
1932.6247,0.001330
1934.4883,0.001053
1936.3520,0.000634
1938.2157,0.000726
1940.0793,0.000932
1941.9430,0.000996
1943.8067,0.001312
1945.6704,0.001008
1947.5340,0.000953
1949.3977,0.001445
1951.2614,0.001729
1953.1250,0.001392
1954.9887,0.000992
1956.8524,0.000802
1958.7160,0.001029
1960.5797,0.001254
1962.4434,0.001083
1964.3070,0.001022
1966.1707,0.000688
1968.0344,0.000634
1969.8980,0.000929
1971.7617,0.001355
1973.6254,0.001579
1975.4891,0.001533
1977.3527,0.001297
1979.2164,0.000997
1981.0801,0.001125
1982.9437,0.001131
1984.8074,0.001061
1986.6711,0.001500
1988.5347,0.001650
1990.3984,0.000510
1992.2621,0.000451
1994.1257,0.000880
1995.9894,0.001720
1997.8531,0.001696
1999.7167,0.000896
2001.5804,0.001224
2003.4441,0.000890
2005.3078,0.000604
2007.1714,0.001095
2009.0351,0.001194
2010.8988,0.001115
2012.7624,0.001388
2014.6261,0.000867
2016.4898,0.001141
2018.3534,0.001746
2020.2171,0.001448
2022.0808,0.001395
2023.9444,0.001281
2025.8081,0.001360
2027.6718,0.001598
2029.5355,0.001702
2031.3991,0.001267
2033.2628,0.001009
2035.1265,0.001389
2036.9901,0.001877
2038.8538,0.001561
2040.7175,0.001354
2042.5811,0.001390
2044.4448,0.001422
2046.3085,0.001746
2048.1721,0.001970
2050.0358,0.001513
2051.8995,0.001186
2053.7631,0.001062
2055.6268,0.001277
2057.4905,0.001554
2059.3542,0.001231
2061.2178,0.001063
2063.0815,0.001235
2064.9452,0.001447
2066.8088,0.001101
2068.6725,0.000946
2070.5362,0.001104
2072.3998,0.001269
2074.2635,0.001632
2076.1272,0.001595
2077.9908,0.001676
2079.8545,0.001870
2081.7182,0.001397
2083.5819,0.000825
2085.4455,0.000789
2087.3092,0.001052
2089.1729,0.001481
2091.0365,0.001533
2092.9002,0.001369
2094.7639,0.001331
2096.6275,0.001471
2098.4912,0.001923
2100.3549,0.001885
2102.2185,0.001445
2104.0822,0.001203
2105.9459,0.001088
2107.8095,0.001090
2109.6732,0.001092
2111.5369,0.001222
2113.4006,0.001462
2115.2642,0.000914
2117.1279,0.000773
2118.9916,0.001403
2120.8552,0.001471
2122.7189,0.001385
2124.5826,0.001536
2126.4462,0.001633
2128.3099,0.001488
2130.1736,0.001128
2132.0372,0.001186
2133.9009,0.001158
2135.7646,0.000866
2137.6282,0.000687
2139.4919,0.000775
2141.3556,0.000444
2143.2193,0.000334
2145.0829,0.000726
2146.9466,0.000841
2148.8103,0.000557
2150.6739,0.000395
2152.5376,0.000927
2154.4013,0.001599
2156.2649,0.001608
2158.1286,0.001523
2159.9923,0.001508
2161.8559,0.001108
2163.7196,0.000855
2165.5833,0.001335
2167.4470,0.001405
2169.3106,0.001388
2171.1743,0.001283
2173.0380,0.001372
2174.9016,0.001451
2176.7653,0.001099
2178.6290,0.001082
2180.4926,0.001585
2182.3563,0.001778
2184.2200,0.001666
2186.0836,0.001201
2187.9473,0.000807
2189.8110,0.001184
2191.6746,0.001451
2193.5383,0.001510
2195.4020,0.001652
2197.2657,0.001631
2199.1293,0.001788
2200.9930,0.001540
2202.8567,0.001266
2204.7203,0.001524
2206.5840,0.001772
2208.4477,0.001744
2210.3113,0.001780
2212.1750,0.001294
2214.0387,0.001373
2215.9023,0.001803
2217.7660,0.001302
2219.6297,0.001340
2221.4934,0.001851
2223.3570,0.001656
2225.2207,0.001290
2227.0844,0.001467
2228.9480,0.001485
2230.8117,0.001242
2232.6754,0.001358
2234.5390,0.001446
2236.4027,0.001663
2238.2664,0.002093
2240.1300,0.002216
2241.9937,0.001758
2243.8574,0.001217
2245.7210,0.001281
2247.5847,0.001232
2249.4484,0.001273
2251.3121,0.001263
2253.1757,0.001720
2255.0394,0.001839
2256.9031,0.001844
2258.7667,0.001704
2260.6304,0.001593
2262.4941,0.001686
2264.3577,0.001307
2266.2214,0.001342
2268.0851,0.001821
2269.9487,0.001721
2271.8124,0.001710
2273.6761,0.001837
2275.5397,0.001741
2277.4034,0.001716
2279.2671,0.001515
2281.1308,0.001622
2282.9944,0.001615
2284.8581,0.001592
2286.7218,0.001785
2288.5854,0.001930
2290.4491,0.001998
2292.3128,0.001681
2294.1764,0.001312
2296.0401,0.001207
2297.9038,0.001558
2299.7674,0.001924
2301.6311,0.001729
2303.4948,0.001515
2305.3585,0.001569
2307.2221,0.001563
2309.0858,0.001409
2310.9495,0.001384
2312.8131,0.001763
2314.6768,0.002053
2316.5405,0.001746
2318.4041,0.001682
2320.2678,0.002122
2322.1315,0.002363
2323.9951,0.002467
2325.8588,0.002096
2327.7225,0.001805
2329.5861,0.001963
2331.4498,0.001804
2333.3135,0.001812
2335.1772,0.002136
2337.0408,0.002208
2338.9045,0.002282
2340.7682,0.002299
2342.6318,0.002021
2344.4955,0.001885
2346.3592,0.001847
2348.2228,0.001739
2350.0865,0.001666
2351.9502,0.001936
2353.8138,0.002296
2355.6775,0.002329
2357.5412,0.002211
2359.4049,0.002010
2361.2685,0.001839
2363.1322,0.001804
2364.9959,0.001750
2366.8595,0.002221
2368.7232,0.002520
2370.5869,0.002188
2372.4505,0.002062
2374.3142,0.001973
2376.1779,0.001779
2378.0415,0.001699
2379.9052,0.001497
2381.7689,0.001406
2383.6325,0.001632
2385.4962,0.001658
2387.3599,0.001737
2389.2236,0.001698
2391.0872,0.001520
2392.9509,0.001573
2394.8146,0.001307
2396.6782,0.000990
2398.5419,0.001364
2400.4056,0.001529
2402.2692,0.001243
2404.1329,0.001387
2405.9966,0.001636
2407.8602,0.001712
2409.7239,0.001824
2411.5876,0.001570
2413.4512,0.001339
2415.3149,0.001480
2417.1786,0.001679
2419.0423,0.001788
2420.9059,0.001799
2422.7696,0.001515
2424.6333,0.001370
2426.4969,0.001610
2428.3606,0.001542
2430.2243,0.001361
2432.0879,0.001608
2433.9516,0.001906
2435.8153,0.002175
2437.6789,0.001863
2439.5426,0.001467
2441.4063,0.001259
2443.2700,0.001128
2445.1336,0.001376
2446.9973,0.002001
2448.8610,0.001901
2450.7246,0.001593
2452.5883,0.001373
2454.4520,0.001440
2456.3156,0.001610
2458.1793,0.001550
2460.0430,0.001346
2461.9066,0.001354
2463.7703,0.001724
2465.6340,0.001937
2467.4976,0.001741
2469.3613,0.001772
2471.2250,0.001769
2473.0887,0.001560
2474.9523,0.001372
2476.8160,0.001590
2478.6797,0.001959
2480.5433,0.001631
2482.4070,0.001281
2484.2707,0.001523
2486.1343,0.001496
2487.9980,0.001170
2489.8617,0.001380
2491.7253,0.001924
2493.5890,0.002030
2495.4527,0.001391
2497.3164,0.001141
2499.1800,0.001628
2501.0437,0.002121
2502.9074,0.002193
2504.7710,0.001918
2506.6347,0.001430
2508.4984,0.001470
2510.3620,0.001803
2512.2257,0.001669
2514.0894,0.001456
2515.9530,0.001472
2517.8167,0.001429
2519.6804,0.001493
2521.5440,0.001854
2523.4077,0.001745
2525.2714,0.001415
2527.1351,0.001543
2528.9987,0.001433
2530.8624,0.001377
2532.7261,0.002026
2534.5897,0.002061
2536.4534,0.001598
2538.3171,0.001705
2540.1807,0.001991
2542.0444,0.002034
2543.9081,0.001913
2545.7717,0.001440
2547.6354,0.001194
2549.4991,0.001546
2551.3627,0.001996
2553.2264,0.001791
2555.0901,0.001249
2556.9538,0.001210
2558.8174,0.001578
2560.6811,0.001754
2562.5448,0.001970
2564.4084,0.001960
2566.2721,0.001541
2568.1358,0.001151
2569.9994,0.001208
2571.8631,0.001429
2573.7268,0.001653
2575.5904,0.001756
2577.4541,0.001619
2579.3178,0.001454
2581.1815,0.001272
2583.0451,0.001235
2584.9088,0.001468
2586.7725,0.001705
2588.6361,0.001878
2590.4998,0.001925
2592.3635,0.002015
2594.2271,0.001899
2596.0908,0.001797
2597.9545,0.001934
2599.8181,0.001746
2601.6818,0.001558
2603.5455,0.001723
2605.4091,0.001757
2607.2728,0.001553
2609.1365,0.001382
2611.0002,0.001738
2612.8638,0.001921
2614.7275,0.001784
2616.5912,0.001666
2618.4548,0.001587
2620.3185,0.001820
2622.1822,0.002139
2624.0458,0.002134
2625.9095,0.001673
2627.7732,0.001312
2629.6368,0.001467
2631.5005,0.001698
2633.3642,0.001821
2635.2279,0.002067
2637.0915,0.001912
2638.9552,0.001512
2640.8189,0.001610
2642.6825,0.001742
2644.5462,0.001625
2646.4099,0.001709
2648.2735,0.001789
2650.1372,0.001741
2652.0009,0.001653
2653.8645,0.001748
2655.7282,0.001792
2657.5919,0.001658
2659.4555,0.001599
2661.3192,0.001535
2663.1829,0.001544
2665.0466,0.001501
2666.9102,0.001394
2668.7739,0.001527
2670.6376,0.001759
2672.5012,0.001709
2674.3649,0.001765
2676.2286,0.001607
2678.0922,0.001413
2679.9559,0.001357
2681.8196,0.001317
2683.6832,0.001271
2685.5469,0.001271
2687.4106,0.001426
2689.2742,0.001518
2691.1379,0.001537
2693.0016,0.001661
2694.8653,0.001746
2696.7289,0.001689
2698.5926,0.001556
2700.4563,0.001622
2702.3199,0.001789
2704.1836,0.001890
2706.0473,0.001499
2707.9109,0.001060
2709.7746,0.001261
2711.6383,0.001565
2713.5019,0.001522
2715.3656,0.001464
2717.2293,0.001544
2719.0930,0.001736
2720.9566,0.001682
2722.8203,0.001467
2724.6840,0.001483
2726.5476,0.001465
2728.4113,0.001509
2730.2750,0.001723
2732.1386,0.001810
2734.0023,0.001730
2735.8660,0.001594
2737.7296,0.001529
2739.5933,0.001504
2741.4570,0.001500
2743.3206,0.001391
2745.1843,0.001320
2747.0480,0.001269
2748.9117,0.001290
2750.7753,0.001536
2752.6390,0.001644
2754.5027,0.001666
2756.3663,0.001750
2758.2300,0.001696
2760.0937,0.001639
2761.9573,0.001596
2763.8210,0.001483
2765.6847,0.001237
2767.5483,0.001337
2769.4120,0.001641
2771.2757,0.001516
2773.1394,0.001461
2775.0030,0.001324
2776.8667,0.001281
2778.7304,0.001322
2780.5940,0.001423
2782.4577,0.001744
2784.3214,0.001857
2786.1850,0.001699
2788.0487,0.001661
2789.9124,0.001702
2791.7760,0.001814
2793.6397,0.001775
2795.5034,0.001571
2797.3670,0.001620
2799.2307,0.001421
2801.0944,0.001110
2802.9581,0.001412
2804.8217,0.001539
2806.6854,0.001383
2808.5491,0.001579
2810.4127,0.001638
2812.2764,0.001402
2814.1401,0.001368
2816.0037,0.001481
2817.8674,0.001392
2819.7311,0.001276
2821.5947,0.001359
2823.4584,0.001606
2825.3221,0.001490
2827.1857,0.001300
2829.0494,0.001508
2830.9131,0.001611
2832.7768,0.001320
2834.6404,0.001151
2836.5041,0.001401
2838.3678,0.001611
2840.2314,0.001534
2842.0951,0.001323
2843.9588,0.000960
2845.8224,0.001016
2847.6861,0.001267
2849.5498,0.001376
2851.4134,0.001528
2853.2771,0.001675
2855.1408,0.001628
2857.0045,0.001229
2858.8681,0.000950
2860.7318,0.001168
2862.5955,0.001564
2864.4591,0.001742
2866.3228,0.001549
2868.1865,0.001365
2870.0501,0.001546
2871.9138,0.001655
2873.7775,0.001551
2875.6411,0.001568
2877.5048,0.001333
2879.3685,0.000910
2881.2321,0.000844
2883.0958,0.001146
2884.9595,0.001250
2886.8232,0.001502
2888.6868,0.002024
2890.5505,0.002137
2892.4142,0.001820
2894.2778,0.001430
2896.1415,0.001270
2898.0052,0.001301
2899.8688,0.001396
2901.7325,0.001584
2903.5962,0.001442
2905.4598,0.001153
2907.3235,0.001174
2909.1872,0.001268
2911.0509,0.001278
2912.9145,0.001455
2914.7782,0.001517
2916.6419,0.001352
2918.5055,0.001555
2920.3692,0.001826
2922.2329,0.001636
2924.0965,0.001410
2925.9602,0.001522
2927.8239,0.001568
2929.6875,0.001380
2931.5512,0.001056
2933.4149,0.001032
2935.2785,0.001447
2937.1422,0.001564
2939.0059,0.001333
2940.8696,0.001358
2942.7332,0.001778
2944.5969,0.001984
2946.4606,0.001511
2948.3242,0.001033
2950.1879,0.001102
2952.0516,0.001366
2953.9152,0.001538
2955.7789,0.001481
2957.6426,0.001456
2959.5062,0.001283
2961.3699,0.001272
2963.2336,0.001297
2965.0972,0.001178
2966.9609,0.001427
2968.8246,0.001459
2970.6883,0.001057
2972.5519,0.001156
2974.4156,0.001284
2976.2793,0.000969
2978.1429,0.001081
2980.0066,0.001238
2981.8703,0.000917
2983.7339,0.000838
2985.5976,0.001030
2987.4613,0.000954
2989.3249,0.000991
2991.1886,0.001206
2993.0523,0.001096
2994.9160,0.000759
2996.7796,0.000550
2998.6433,0.000936
3000.5070,0.001218
3002.3706,0.000862
3004.2343,0.000826
3006.0980,0.001032
3007.9616,0.001311
3009.8253,0.001609
3011.6890,0.001597
3013.5526,0.001334
3015.4163,0.000914
3017.2800,0.000583
3019.1436,0.000930
3021.0073,0.001470
3022.8710,0.001224
3024.7347,0.000990
3026.5983,0.001478
3028.4620,0.001736
3030.3257,0.001425
3032.1893,0.001057
3034.0530,0.001116
3035.9167,0.001458
3037.7803,0.001188
3039.6440,0.000699
3041.5077,0.000478
3043.3713,0.000704
3045.2350,0.001201
3047.0987,0.001257
3048.9624,0.001361
3050.8260,0.001164
3052.6897,0.000514
3054.5534,0.000569
3056.4170,0.001031
3058.2807,0.000983
3060.1444,0.000641
3062.0080,0.000620
3063.8717,0.000943
3065.7354,0.000783
3067.5990,0.000358
3069.4627,0.000733
3071.3264,0.000991
3073.1900,0.000650
3075.0537,0.000348
3076.9174,0.000570
3078.7811,0.000961
3080.6447,0.000979
3082.5084,0.001241
3084.3721,0.001647
3086.2357,0.001441
3088.0994,0.001016
3089.9631,0.000841
3091.8267,0.000806
3093.6904,0.000767
3095.5541,0.001045
3097.4177,0.001287
3099.2814,0.001023
3101.1451,0.001021
3103.0087,0.000904
3104.8724,0.000331
3106.7361,0.000338
3108.5998,0.000733
3110.4634,0.000900
3112.3271,0.001103
3114.1908,0.001483
3116.0544,0.001599
3117.9181,0.001215
3119.7818,0.000589
3121.6454,0.000259
3123.5091,0.000289
3125.3728,0.000790
3127.2364,0.001474
3129.1001,0.000945
3130.9638,0.000306
3132.8275,0.000579
3134.6911,0.000750
3136.5548,0.000709
3138.4185,0.000674
3140.2821,0.000853
3142.1458,0.001260
3144.0095,0.001170
3145.8731,0.000880
3147.7368,0.001048
3149.6005,0.001037
3151.4641,0.000870
3153.3278,0.000834
3155.1915,0.000810
3157.0551,0.000952
3158.9188,0.001126
3160.7825,0.000806
3162.6462,0.000740
3164.5098,0.000868
3166.3735,0.000293
3168.2372,0.000455
3170.1008,0.001290
3171.9645,0.001092
3173.8282,0.000751
3175.6918,0.000606
3177.5555,0.000439
3179.4192,0.000564
3181.2828,0.000369
3183.1465,0.000823
3185.0102,0.001423
3186.8739,0.001270
3188.7375,0.001255
3190.6012,0.000612
3192.4649,-0.000415
3194.3285,-0.000048
3196.1922,0.001052
3198.0559,0.001260
3199.9195,0.000699
3201.7832,0.000664
3203.6469,0.000501
3205.5105,0.000011
3207.3742,0.000104
3209.2379,0.000864
3211.1015,0.001091
3212.9652,0.000658
3214.8289,0.000883
3216.6926,0.000941
3218.5562,-0.000062
3220.4199,-0.000087
3222.2836,0.001215
3224.1472,0.001155
3226.0109,0.000301
3227.8746,0.000097
3229.7382,-0.000087
3231.6019,0.000067
3233.4656,0.000695
3235.3292,0.000986
3237.1929,0.000835
3239.0566,0.000813
3240.9202,0.001384
3242.7839,0.001436
3244.6476,0.000254
3246.5113,-0.000538
3248.3749,-0.000153
3250.2386,-0.000081
3252.1023,-0.000163
3253.9659,0.000140
3255.8296,0.000548
3257.6933,0.000539
3259.5569,0.000537
3261.4206,0.000845
3263.2843,0.001048
3265.1479,0.001269
3267.0116,0.000746
3268.8753,-0.000182
3270.7390,0.000057
3272.6026,0.000625
3274.4663,0.000470
3276.3300,0.000576
3278.1936,0.000292
3280.0573,-0.000486
3281.9210,-0.000592
3283.7846,-0.000188
3285.6483,0.000294
3287.5120,0.000447
3289.3756,0.000346
3291.2393,-0.000340
3293.1030,-0.000075
3294.9666,0.000237
3296.8303,-0.000460
3298.6940,-0.000461
3300.5577,-0.000324
3302.4213,-0.000327
3304.2850,-0.000005
3306.1487,0.000417
3308.0123,0.000747
3309.8760,0.000000
3311.7397,0.000078
3313.6033,0.000790
3315.4670,0.000728
3317.3307,0.000434
3319.1943,0.001227
3321.0580,0.001502
3322.9217,0.000531
3324.7854,-0.000415
3326.6490,-0.000838
3328.5127,-0.000186
3330.3764,0.000125
3332.2400,-0.000426
3334.1037,-0.000558
3335.9674,-0.000065
3337.8310,0.000698
3339.6947,0.000684
3341.5584,-0.000565
3343.4220,-0.001286
3345.2857,-0.000737
3347.1494,-0.000324
3349.0130,0.000293
3350.8767,0.000704
3352.7404,0.000704
3354.6041,0.001167
3356.4677,0.001332
3358.3314,0.000403
3360.1951,-0.000891
3362.0587,-0.000859
3363.9224,-0.000866
3365.7861,-0.000613
3367.6497,0.000208
3369.5134,0.001032
3371.3771,0.001201
3373.2407,0.001201
3375.1044,0.000572
3376.9681,-0.000312
3378.8317,-0.000163
3380.6954,0.000559
3382.5591,0.000264
3384.4228,-0.001211
3386.2864,-0.002265
3388.1501,-0.001295
3390.0138,0.000247
3391.8774,-0.000660
3393.7411,-0.001419
3395.6048,-0.000256
3397.4684,-0.000300
3399.3321,-0.001434
3401.1958,-0.001517
3403.0594,-0.001195
3404.9231,-0.000887
3406.7868,-0.000372
3408.6505,0.000619
3410.5141,0.000703
3412.3778,0.000419
3414.2415,0.000564
3416.1051,0.000370
3417.9688,-0.000337
3419.8325,-0.000285
3421.6961,-0.000378
3423.5598,0.000007
3425.4235,-0.000020
3427.2871,-0.000962
3429.1508,-0.000969
3431.0145,-0.000526
3432.8781,-0.000329
3434.7418,-0.000303
3436.6055,-0.001503
3438.4692,-0.001884
3440.3328,-0.001572
3442.1965,-0.001156
3444.0602,-0.000259
3445.9238,0.000247
3447.7875,-0.000212
3449.6512,-0.000475
3451.5148,-0.001001
3453.3785,-0.001041
3455.2422,-0.000918
3457.1058,-0.001398
3458.9695,-0.000495
3460.8332,0.000157
3462.6969,-0.000713
3464.5605,-0.001315
3466.4242,-0.000917
3468.2879,-0.000665
3470.1515,-0.001090
3472.0152,-0.001074
3473.8789,-0.000013
3475.7425,0.000395
3477.6062,-0.001402
3479.4699,-0.002802
3481.3335,-0.001500
3483.1972,-0.001129
3485.0609,-0.001168
3486.9245,-0.000972
3488.7882,-0.000297
3490.6519,0.000718
3492.5156,0.000921
3494.3792,0.000889
3496.2429,0.000618
3498.1066,0.000376
3499.9702,-0.000446
3501.8339,-0.001059
3503.6976,-0.000101
3505.5612,0.000168
3507.4249,-0.000418
3509.2886,-0.000705
3511.1522,-0.001116
3513.0159,-0.001354
3514.8796,-0.000955
3516.7432,-0.000543
3518.6069,-0.000808
3520.4706,-0.001124
3522.3343,-0.001604
3524.1979,-0.000458
3526.0616,0.001642
3527.9253,0.002120
3529.7889,0.001189
3531.6526,0.000427
3533.5163,-0.000659
3535.3799,-0.002189
3537.2436,-0.001914
3539.1073,-0.000100
3540.9709,-0.000182
3542.8346,0.000094
3544.6983,0.000264
3546.5620,-0.001469
3548.4256,-0.001911
3550.2893,-0.000409
3552.1530,-0.000483
3554.0166,-0.001553
3555.8803,-0.000713
3557.7440,0.000440
3559.6076,-0.000445
3561.4713,-0.001850
3563.3350,-0.002033
3565.1986,-0.000516
3567.0623,0.000214
3568.9260,-0.001151
3570.7896,-0.001085
3572.6533,0.000611
3574.5170,0.001005
3576.3807,-0.000698
3578.2443,-0.001234
3580.1080,-0.000575
3581.9717,-0.000989
3583.8353,-0.000440
3585.6990,0.001353
3587.5627,0.002215
3589.4263,0.000585
3591.2900,-0.000532
3593.1537,-0.000873
3595.0173,-0.001029
3596.8810,-0.000237
3598.7447,0.000747
3600.6084,-0.000158
3602.4720,-0.000693
3604.3357,-0.001526
3606.1994,-0.001985
3608.0630,-0.000808
3609.9267,0.000730
3611.7904,0.000172
3613.6540,-0.000575
3615.5177,-0.001404
3617.3814,-0.001405
3619.2450,-0.000110
3621.1087,0.001053
3622.9724,0.000195
3624.8360,-0.000544
3626.6997,-0.001224
3628.5634,-0.001597
3630.4271,-0.000750
3632.2907,-0.000733
3634.1544,-0.001377
3636.0181,-0.001413
3637.8817,-0.000671
3639.7454,-0.000510
3641.6091,-0.000915
3643.4727,-0.001272
3645.3364,-0.000892
3647.2001,-0.001236
3649.0637,-0.000832
3650.9274,0.000310
3652.7911,0.000141
3654.6547,-0.000322
3656.5184,-0.001092
3658.3821,-0.000951
3660.2458,-0.000676
3662.1094,-0.001147
3663.9731,-0.001422
3665.8368,-0.001100
3667.7004,-0.000987
3669.5641,-0.000747
3671.4278,-0.000554
3673.2914,-0.001161
3675.1551,-0.001191
3677.0188,0.000046
3678.8824,0.000086
3680.7461,-0.000768
3682.6098,-0.001388
3684.4735,-0.002070
3686.3371,-0.001794
3688.2008,-0.001478
3690.0645,-0.000874
3691.9281,0.000182
3693.7918,-0.000327
3695.6555,-0.000808
3697.5191,-0.001023
3699.3828,-0.001853
3701.2465,-0.002083
3703.1101,-0.001364
3704.9738,-0.000882
3706.8375,-0.001013
3708.7011,-0.001292
3710.5648,-0.000725
3712.4285,-0.000309
3714.2922,-0.000327
3716.1558,-0.000981
3718.0195,-0.001559
3719.8832,-0.001339
3721.7468,-0.001321
3723.6105,-0.001380
3725.4742,-0.001225
3727.3378,-0.000879
3729.2015,-0.000789
3731.0652,-0.001418
3732.9288,-0.001658
3734.7925,-0.001859
3736.6562,-0.001696
3738.5199,-0.001073
3740.3835,-0.001292
3742.2472,-0.002424
3744.1109,-0.002270
3745.9745,-0.000580
3747.8382,-0.000086
3749.7019,-0.000902
3751.5655,-0.000720
3753.4292,-0.000308
3755.2929,-0.000430
3757.1565,-0.000891
3759.0202,-0.000866
3760.8839,-0.000474
3762.7475,-0.000464
3764.6112,-0.000830
3766.4749,-0.001818
3768.3386,-0.001977
3770.2022,-0.001518
3772.0659,-0.001224
3773.9296,-0.001065
3775.7932,-0.000709
3777.6569,-0.000529
3779.5206,-0.001321
3781.3842,-0.001741
3783.2479,-0.001469
3785.1116,-0.000914
3786.9752,-0.001059
3788.8389,-0.001431
3790.7026,-0.001114
3792.5662,-0.000643
3794.4299,-0.001170
3796.2936,-0.001593
3798.1573,-0.001232
3800.0209,-0.001246
3801.8846,-0.001277
3803.7483,-0.000702
3805.6119,-0.000962
3807.4756,-0.001429
3809.3393,-0.000536
3811.2029,-0.000193
3813.0666,-0.000633
3814.9303,-0.001491
3816.7939,-0.001967
3818.6576,-0.001090
3820.5213,-0.001119
3822.3850,-0.001518
3824.2486,-0.001351
3826.1123,-0.001868
3827.9760,-0.001655
3829.8396,-0.000973
3831.7033,-0.000909
3833.5670,-0.000419
3835.4306,-0.000917
3837.2943,-0.001926
3839.1580,-0.001366
3841.0216,-0.001347
3842.8853,-0.001209
3844.7490,-0.001184
3846.6126,-0.001416
3848.4763,-0.001161
3850.3400,-0.001649
3852.2037,-0.001873
3854.0673,-0.000223
3855.9310,0.000741
3857.7947,-0.000606
3859.6583,-0.001808
3861.5220,-0.001941
3863.3857,-0.002229
3865.2493,-0.002242
3867.1130,-0.001848
3868.9767,-0.001654
3870.8403,-0.001768
3872.7040,-0.001079
3874.5677,-0.000449
3876.4314,-0.001229
3878.2950,-0.001870
3880.1587,-0.002188
3882.0224,-0.002192
3883.8860,-0.001333
3885.7497,-0.001190
3887.6134,-0.001345
3889.4770,-0.001120
3891.3407,-0.000784
3893.2044,-0.001150
3895.0680,-0.001704
3896.9317,-0.001804
3898.7954,-0.001912
3900.6590,-0.002257
3902.5227,-0.001974
3904.3864,-0.000895
3906.2501,-0.000958
3908.1137,-0.001411
3909.9774,-0.001137
3911.8411,-0.001497
3913.7047,-0.001935
3915.5684,-0.001561
3917.4321,-0.001277
3919.2957,-0.001839
3921.1594,-0.001666
3923.0231,-0.001092
3924.8867,-0.001124
3926.7504,-0.001500
3928.6141,-0.001429
3930.4777,-0.001613
3932.3414,-0.001759
3934.2051,-0.001808
3936.0688,-0.001722
3937.9324,-0.001149
3939.7961,-0.001269
3941.6598,-0.001232
3943.5234,-0.001614
3945.3871,-0.002608
3947.2508,-0.002910
3949.1144,-0.002305
3950.9781,-0.001174
3952.8418,-0.000414
3954.7054,-0.001236
3956.5691,-0.002169
3958.4328,-0.001969
3960.2965,-0.001490
3962.1601,-0.001522
3964.0238,-0.001400
3965.8875,-0.000977
3967.7511,-0.001511
3969.6148,-0.002055
3971.4785,-0.002248
3973.3421,-0.002021
3975.2058,-0.001755
3977.0695,-0.001714
3978.9331,-0.001122
3980.7968,-0.001050
3982.6605,-0.001077
3984.5241,-0.000814
3986.3878,-0.000643
3988.2515,-0.000818
3990.1152,-0.001675
3991.9788,-0.002555
3993.8425,-0.002202
3995.7062,-0.000815
3997.5698,-0.000927
3999.4335,-0.001796
4001.2972,-0.001981
4003.1608,-0.001883
4005.0245,-0.001148
4006.8882,-0.000577
4008.7518,-0.000591
4010.6155,-0.000779
4012.4792,-0.001632
4014.3429,-0.001636
4016.2065,-0.001198
4018.0702,-0.001847
4019.9339,-0.002787
4021.7975,-0.001894
4023.6612,-0.001186
4025.5249,-0.001401
4027.3885,-0.001584
4029.2522,-0.001315
4031.1159,-0.000734
4032.9795,-0.000585
4034.8432,-0.002190
4036.7069,-0.002953
4038.5705,-0.002380
4040.4342,-0.001603
4042.2979,-0.001052
4044.1616,-0.001572
4046.0252,-0.001931
4047.8889,-0.001396
4049.7526,-0.001632
4051.6162,-0.001859
4053.4799,-0.001758
4055.3436,-0.001638
4057.2072,-0.001126
4059.0709,-0.000779
4060.9346,-0.001572
4062.7982,-0.001978
4064.6619,-0.002143
4066.5256,-0.002516
4068.3892,-0.002140
4070.2529,-0.001345
4072.1166,-0.002005
4073.9803,-0.002553
4075.8439,-0.002248
4077.7076,-0.001297
4079.5713,-0.001046
4081.4349,-0.002076
4083.2986,-0.002601
4085.1623,-0.001874
4087.0259,-0.001505
4088.8896,-0.001372
4090.7533,-0.001520
4092.6169,-0.001304
4094.4806,-0.001635
4096.3443,-0.002737
4098.2080,-0.002148
4100.0716,-0.001689
4101.9353,-0.002331
4103.7990,-0.002580
4105.6626,-0.002068
4107.5263,-0.001735
4109.3900,-0.001474
4111.2536,-0.001619
4113.1173,-0.002197
4114.9810,-0.002911
4116.8446,-0.002531
4118.7083,-0.002380
4120.5720,-0.001757
4122.4356,-0.000722
4124.2993,-0.000951
4126.1630,-0.001881
4128.0267,-0.002001
4129.8903,-0.001957
4131.7540,-0.002092
4133.6177,-0.001863
4135.4813,-0.002128
4137.3450,-0.002294
4139.2087,-0.002040
4141.0723,-0.002180
4142.9360,-0.002358
4144.7997,-0.001973
4146.6633,-0.001287
4148.5270,-0.002132
4150.3907,-0.002320
4152.2544,-0.001457
4154.1180,-0.001298
4155.9817,-0.002592
4157.8454,-0.003146
4159.7090,-0.002627
4161.5727,-0.001986
4163.4364,-0.001375
4165.3000,-0.002021
4167.1637,-0.002020
4169.0274,-0.001611
4170.8910,-0.001727
4172.7547,-0.000656
4174.6184,-0.000477
4176.4820,-0.002332
4178.3457,-0.003628
4180.2094,-0.002900
4182.0731,-0.002424
4183.9367,-0.002076
4185.8004,-0.001664
4187.6641,-0.001629
4189.5277,-0.001460
4191.3914,-0.001139
4193.2551,-0.001835
4195.1187,-0.002837
4196.9824,-0.002770
4198.8461,-0.001482
4200.7097,-0.000787
4202.5734,-0.001640
4204.4371,-0.003065
4206.3007,-0.003430
4208.1644,-0.003184
4210.0281,-0.002240
4211.8918,-0.001100
4213.7554,-0.001420
4215.6191,-0.001880
4217.4828,-0.001817
4219.3464,-0.001698
4221.2101,-0.001786
4223.0738,-0.001755
4224.9374,-0.002343
4226.8011,-0.001791
4228.6648,-0.001707
4230.5284,-0.001962
4232.3921,-0.001720
4234.2558,-0.002162
4236.1195,-0.002934
4237.9831,-0.002354
4239.8468,-0.001885
4241.7105,-0.002236
4243.5741,-0.001921
4245.4378,-0.002390
4247.3015,-0.002685
4249.1651,-0.002121
4251.0288,-0.001716
4252.8925,-0.000985
4254.7561,-0.000790
4256.6198,-0.002153
4258.4835,-0.003146
4260.3471,-0.002313
4262.2108,-0.001332
4264.0745,-0.001279
4265.9382,-0.001853
4267.8018,-0.001669
4269.6655,-0.001574
4271.5292,-0.001878
4273.3928,-0.002592
4275.2565,-0.002503
4277.1202,-0.001863
4278.9838,-0.002498
4280.8475,-0.003268
4282.7112,-0.002806
4284.5748,-0.001700
4286.4385,-0.000870
4288.3022,-0.000709
4290.1659,-0.001825
4292.0295,-0.001717
4293.8932,-0.001834
4295.7569,-0.002010
4297.6205,-0.001372
4299.4842,-0.002056
4301.3479,-0.002955
4303.2115,-0.002545
4305.0752,-0.002400
4306.9389,-0.002590
4308.8025,-0.001834
4310.6662,-0.001611
4312.5299,-0.001912
4314.3935,-0.001513
4316.2572,-0.001165
4318.1209,-0.001685
4319.9846,-0.002271
4321.8482,-0.002179
4323.7119,-0.001891
4325.5756,-0.001393
4327.4392,-0.002028
4329.3029,-0.002025
4331.1666,-0.001070
4333.0302,-0.001226
4334.8939,-0.001890
4336.7576,-0.002643
4338.6212,-0.002657
4340.4849,-0.001693
4342.3486,-0.001519
4344.2122,-0.002472
4346.0759,-0.001435
4347.9396,-0.000634
4349.8033,-0.001471
4351.6669,-0.002056
4353.5306,-0.002456
4355.3943,-0.001823
4357.2579,-0.001120
4359.1216,-0.001035
4360.9853,-0.001517
4362.8489,-0.002437
4364.7126,-0.001002
4366.5763,-0.000262
4368.4399,-0.001484
4370.3036,-0.002655
4372.1673,-0.002233
4374.0310,-0.001589
4375.8946,-0.001411
4377.7583,-0.000541
4379.6220,-0.001061
4381.4856,-0.002100
4383.3493,-0.001520
4385.2130,-0.001577
4387.0766,-0.002985
4388.9403,-0.002850
4390.8040,-0.003068
4392.6676,-0.002162
4394.5313,-0.000812
4396.3950,0.000103
4398.2586,0.000512
4400.1223,-0.000348
4401.9860,-0.002236
4403.8497,-0.002766
4405.7133,-0.001432
4407.5770,-0.000810
4409.4407,-0.001330
4411.3043,-0.002053
4413.1680,-0.002656
4415.0317,-0.001720
4416.8953,-0.001299
4418.7590,-0.001334
4420.6227,-0.001404
4422.4863,-0.002051
4424.3500,-0.002394
4426.2137,-0.002172
4428.0774,-0.001577
4429.9410,-0.000665
4431.8047,-0.000685
4433.6684,-0.001392
4435.5320,-0.002004
4437.3957,-0.002110
4439.2594,-0.001664
4441.1230,-0.002005
4442.9867,-0.002484
4444.8504,-0.001820
4446.7140,-0.001020
4448.5777,-0.001149
4450.4414,-0.001796
4452.3050,-0.001284
4454.1687,-0.000697
4456.0324,-0.000820
4457.8961,-0.001252
4459.7597,-0.001911
4461.6234,-0.001685
4463.4871,-0.001654
4465.3507,-0.002495
4467.2144,-0.002122
4469.0781,-0.000861
4470.9417,-0.000956
4472.8054,-0.001861
4474.6691,-0.001895
4476.5327,-0.001148
4478.3964,-0.001731
4480.2601,-0.002898
4482.1237,-0.002281
4483.9874,-0.001088
4485.8511,-0.001577
4487.7148,-0.002980
4489.5784,-0.003197
4491.4421,-0.001978
4493.3058,-0.000190
4495.1694,-0.000444
4497.0331,-0.001429
4498.8968,-0.002283
4500.7604,-0.002278
