Wavenumber,Intensity
600.1014,0.058987
601.9651,0.064425
603.8287,0.057634
605.6924,0.059179
607.5561,0.060861
609.4197,0.060734
611.2834,0.054940
613.1471,0.042468
615.0107,0.042856
616.8744,0.049805
618.7381,0.052420
620.6017,0.055585
622.4654,0.052798
624.3291,0.046935
626.1928,0.044464
628.0564,0.044735
629.9201,0.047240
631.7838,0.049568
633.6474,0.050387
635.5111,0.050772
637.3748,0.047444
639.2384,0.046466
641.1021,0.047499
642.9658,0.046439
644.8294,0.046332
646.6931,0.046918
648.5568,0.046774
650.4205,0.046925
652.2841,0.046191
654.1478,0.045150
656.0115,0.046051
657.8751,0.046468
659.7388,0.046768
661.6025,0.046122
663.4661,0.044752
665.3298,0.043866
667.1935,0.044585
669.0571,0.044979
670.9208,0.043041
672.7845,0.043633
674.6481,0.044708
676.5118,0.044608
678.3755,0.043630
680.2392,0.043281
682.1028,0.043116
683.9665,0.042524
685.8302,0.042140
687.6938,0.041437
689.5575,0.041520
691.4212,0.042220
693.2848,0.042494
695.1485,0.042324
697.0122,0.041670
698.8758,0.041208
700.7395,0.040687
702.6032,0.040258
704.4669,0.040088
706.3305,0.040415
708.1942,0.041116
710.0579,0.042664
711.9215,0.043181
713.7852,0.041786
715.6489,0.039990
717.5125,0.038763
719.3762,0.037755
721.2399,0.037273
723.1035,0.037271
724.9672,0.037300
726.8309,0.036775
728.6945,0.036453
730.5582,0.036364
732.4219,0.036102
734.2856,0.035423
736.1492,0.035276
738.0129,0.035708
739.8766,0.035814
741.7402,0.035505
743.6039,0.035354
745.4676,0.035293
747.3312,0.035125
749.1949,0.034957
751.0586,0.035252
752.9222,0.035278
754.7859,0.035160
756.6496,0.035019
758.5132,0.034763
760.3769,0.034651
762.2406,0.034688
764.1043,0.034330
765.9679,0.034035
767.8316,0.034071
769.6953,0.034197
771.5589,0.034107
773.4226,0.034030
775.2863,0.033941
777.1499,0.033920
779.0136,0.033784
780.8773,0.033435
782.7409,0.033060
784.6046,0.032513
786.4683,0.032461
788.3320,0.032563
790.1956,0.032661
792.0593,0.032708
793.9230,0.032587
795.7866,0.032325
797.6503,0.031739
799.5140,0.031159
801.3776,0.031094
803.2413,0.031145
805.1050,0.030875
806.9686,0.030409
808.8323,0.029940
810.6960,0.029650
812.5596,0.029533
814.4233,0.029376
816.2870,0.029296
818.1507,0.029407
820.0143,0.029322
821.8780,0.028984
823.7417,0.028721
825.6053,0.028658
827.4690,0.028711
829.3327,0.028913
831.1963,0.029007
833.0600,0.029178
834.9237,0.029262
836.7873,0.029215
838.6510,0.029348
840.5147,0.029788
842.3784,0.030182
844.2420,0.030402
846.1057,0.030816
847.9694,0.031169
849.8330,0.031072
851.6967,0.031337
853.5604,0.031814
855.4240,0.032139
857.2877,0.032618
859.1514,0.033312
861.0150,0.034103
862.8787,0.035122
864.7424,0.036178
866.6060,0.037337
868.4697,0.039222
870.3334,0.041759
872.1971,0.043921
874.0607,0.044823
875.9244,0.044249
877.7881,0.042432
879.6517,0.039884
881.5154,0.037423
883.3791,0.035497
885.2427,0.033642
887.1064,0.032107
888.9701,0.031591
890.8337,0.031803
892.6974,0.031962
894.5611,0.032073
896.4247,0.032424
898.2884,0.032638
900.1521,0.032653
902.0158,0.032747
903.8794,0.033033
905.7431,0.033359
907.6068,0.033552
909.4704,0.033893
911.3341,0.034141
913.1978,0.034179
915.0614,0.034343
916.9251,0.034596
918.7888,0.034799
920.6524,0.034931
922.5161,0.035128
924.3798,0.035398
926.2435,0.035644
928.1071,0.035752
929.9708,0.035845
931.8345,0.036213
933.6981,0.036567
935.5618,0.036796
937.4255,0.037139
939.2891,0.037368
941.1528,0.037541
943.0165,0.037909
944.8801,0.038339
946.7438,0.038725
948.6075,0.039130
950.4711,0.039664
952.3348,0.040289
954.1985,0.040859
956.0622,0.041368
957.9258,0.041918
959.7895,0.042529
961.6532,0.043053
963.5168,0.043544
965.3805,0.044142
967.2442,0.044784
969.1078,0.045419
970.9715,0.045984
972.8352,0.046470
974.6988,0.047042
976.5625,0.047623
978.4262,0.048282
980.2899,0.048972
982.1535,0.049645
984.0172,0.050252
985.8809,0.050761
987.7445,0.051307
989.6082,0.051771
991.4719,0.052174
993.3355,0.052670
995.1992,0.053114
997.0629,0.053409
998.9265,0.053696
1000.7902,0.054010
1002.6539,0.054207
1004.5175,0.054388
1006.3812,0.054612
1008.2449,0.054710
1010.1086,0.054923
1011.9722,0.055263
1013.8359,0.055443
1015.6996,0.055568
1017.5632,0.055580
1019.4269,0.055434
1021.2906,0.055287
1023.1542,0.055082
1025.0179,0.054836
1026.8816,0.054680
1028.7452,0.054363
1030.6089,0.053935
1032.4726,0.053522
1034.3362,0.053001
1036.1999,0.052445
1038.0636,0.051958
1039.9273,0.051354
1041.7909,0.050665
1043.6546,0.050030
1045.5183,0.049465
1047.3819,0.048769
1049.2456,0.048054
1051.1093,0.047440
1052.9729,0.046864
1054.8366,0.046218
1056.7003,0.045722
1058.5639,0.045217
1060.4276,0.044555
1062.2913,0.043951
1064.1550,0.043390
1066.0186,0.042778
1067.8823,0.042355
1069.7460,0.041992
1071.6096,0.041652
1073.4733,0.041416
1075.3370,0.041184
1077.2006,0.040794
1079.0643,0.040287
1080.9280,0.039741
1082.7916,0.039209
1084.6553,0.038537
1086.5190,0.037748
1088.3826,0.037034
1090.2463,0.036397
1092.1100,0.035762
1093.9737,0.035285
1095.8373,0.034831
1097.7010,0.034288
1099.5647,0.033811
1101.4283,0.033443
1103.2920,0.033156
1105.1557,0.032802
1107.0193,0.032367
1108.8830,0.031971
1110.7467,0.031639
1112.6103,0.031314
1114.4740,0.030965
1116.3377,0.030614
1118.2014,0.030237
1120.0650,0.029832
1121.9287,0.029424
1123.7924,0.029117
1125.6560,0.028743
1127.5197,0.028358
1129.3834,0.028061
1131.2470,0.027740
1133.1107,0.027395
1134.9744,0.027188
1136.8380,0.027000
1138.7017,0.026692
1140.5654,0.026476
1142.4290,0.026361
1144.2927,0.026105
1146.1564,0.025792
1148.0201,0.025571
1149.8837,0.025408
1151.7474,0.025103
1153.6111,0.024580
1155.4747,0.024041
1157.3384,0.023601
1159.2021,0.023239
1161.0657,0.022789
1162.9294,0.022167
1164.7931,0.021527
1166.6567,0.020964
1168.5204,0.020406
1170.3841,0.019805
1172.2477,0.019263
1174.1114,0.018761
1175.9751,0.018196
1177.8388,0.017608
1179.7024,0.017080
1181.5661,0.016672
1183.4298,0.016303
1185.2934,0.016000
1187.1571,0.015811
1189.0208,0.015592
1190.8844,0.015386
1192.7481,0.015255
1194.6118,0.015212
1196.4754,0.015308
1198.3391,0.015392
1200.2028,0.015377
1202.0665,0.015347
1203.9301,0.015361
1205.7938,0.015385
1207.6575,0.015372
1209.5211,0.015300
1211.3848,0.015267
1213.2485,0.015308
1215.1121,0.015349
1216.9758,0.015421
1218.8395,0.015500
1220.7031,0.015562
1222.5668,0.015681
1224.4305,0.015786
1226.2941,0.015849
1228.1578,0.015917
1230.0215,0.016020
1231.8852,0.016063
1233.7488,0.016089
1235.6125,0.016181
1237.4762,0.016166
1239.3398,0.016116
1241.2035,0.016138
1243.0672,0.016123
1244.9308,0.016066
1246.7945,0.015940
1248.6582,0.015792
1250.5218,0.015784
1252.3855,0.015770
1254.2492,0.015684
1256.1129,0.015644
1257.9765,0.015629
1259.8402,0.015609
1261.7039,0.015467
1263.5675,0.015335
1265.4312,0.015336
1267.2949,0.015233
1269.1585,0.015154
1271.0222,0.015169
1272.8859,0.015156
1274.7495,0.015218
1276.6132,0.015301
1278.4769,0.015323
1280.3405,0.015314
1282.2042,0.015378
1284.0679,0.015443
1285.9316,0.015511
1287.7952,0.015561
1289.6589,0.015585
1291.5226,0.015679
1293.3862,0.015807
1295.2499,0.015902
1297.1136,0.016022
1298.9772,0.016212
1300.8409,0.016363
1302.7046,0.016530
1304.5682,0.016662
1306.4319,0.016736
1308.2956,0.016762
1310.1592,0.016867
1312.0229,0.017073
1313.8866,0.017259
1315.7503,0.017400
1317.6139,0.017516
1319.4776,0.017655
1321.3413,0.017734
1323.2049,0.017839
1325.0686,0.017951
1326.9323,0.018015
1328.7959,0.018199
1330.6596,0.018436
1332.5233,0.018598
1334.3869,0.018793
1336.2506,0.019018
1338.1143,0.019225
1339.9780,0.019446
1341.8416,0.019589
1343.7053,0.019725
1345.5690,0.019960
1347.4326,0.020217
1349.2963,0.020500
1351.1600,0.020850
1353.0236,0.021186
1354.8873,0.021441
1356.7510,0.021664
1358.6146,0.021944
1360.4783,0.022294
1362.3420,0.022784
1364.2056,0.023319
1366.0693,0.023701
1367.9330,0.024029
1369.7967,0.024429
1371.6603,0.024850
1373.5240,0.025257
1375.3877,0.025579
1377.2513,0.025878
1379.1150,0.026275
1380.9787,0.026719
1382.8423,0.027109
1384.7060,0.027472
1386.5697,0.028006
1388.4333,0.028494
1390.2970,0.028747
1392.1607,0.029188
1394.0244,0.029671
1395.8880,0.029954
1397.7517,0.030197
1399.6154,0.030395
1401.4790,0.030591
1403.3427,0.031001
1405.2064,0.031362
1407.0700,0.031452
1408.9337,0.031475
1410.7974,0.031494
1412.6610,0.031479
1414.5247,0.031364
1416.3884,0.031206
1418.2520,0.031183
1420.1157,0.030854
1421.9794,0.030454
1423.8431,0.030159
1425.7067,0.029742
1427.5704,0.029342
1429.4341,0.029027
1431.2977,0.028729
1433.1614,0.028403
1435.0251,0.028353
1436.8887,0.028359
1438.7524,0.027835
1440.6161,0.027503
1442.4797,0.027373
1444.3434,0.027143
1446.2071,0.026885
1448.0707,0.026697
1449.9344,0.026474
1451.7981,0.026299
1453.6618,0.025978
1455.5254,0.025752
1457.3891,0.025647
1459.2528,0.025059
1461.1164,0.024212
1462.9801,0.023731
1464.8438,0.023565
1466.7074,0.023031
1468.5711,0.022325
1470.4348,0.021950
1472.2984,0.021785
1474.1621,0.021112
1476.0258,0.020523
1477.8895,0.020118
1479.7531,0.019676
1481.6168,0.019320
1483.4805,0.019004
1485.3441,0.018853
1487.2078,0.018808
1489.0715,0.018735
1490.9351,0.018784
1492.7988,0.018694
1494.6625,0.018581
1496.5261,0.018661
1498.3898,0.018830
1500.2535,0.018925
1502.1171,0.018699
1503.9808,0.018342
1505.8445,0.018707
1507.7082,0.019589
1509.5718,0.019280
1511.4355,0.019130
1513.2992,0.018992
1515.1628,0.018998
1517.0265,0.019176
1518.8902,0.018983
1520.7538,0.019286
1522.6175,0.019384
1524.4812,0.018684
1526.3448,0.018595
1528.2085,0.018590
1530.0722,0.018108
1531.9359,0.018027
1533.7995,0.018431
1535.6632,0.017753
1537.5269,0.016991
1539.3905,0.017337
1541.2542,0.017941
1543.1179,0.017526
1544.9815,0.017063
1546.8452,0.016332
1548.7089,0.015881
1550.5725,0.015541
1552.4362,0.015180
1554.2999,0.014963
1556.1635,0.014182
1558.0272,0.014023
1559.8909,0.014907
1561.7546,0.013890
1563.6182,0.013210
1565.4819,0.013064
1567.3456,0.012772
1569.2092,0.012807
1571.0729,0.012977
1572.9366,0.012455
1574.8002,0.012331
1576.6639,0.013029
1578.5276,0.012878
1580.3912,0.012555
1582.2549,0.012704
1584.1186,0.012871
1585.9822,0.012932
1587.8459,0.013021
1589.7096,0.013099
1591.5733,0.013229
1593.4369,0.013448
1595.3006,0.013655
1597.1643,0.013818
1599.0279,0.013859
1600.8916,0.013816
1602.7553,0.013979
1604.6189,0.014335
1606.4826,0.014569
1608.3463,0.014695
1610.2099,0.014960
1612.0736,0.015223
1613.9373,0.015135
1615.8010,0.015637
1617.6646,0.016786
1619.5283,0.016612
1621.3920,0.016420
1623.2556,0.017231
1625.1193,0.017852
1626.9830,0.018042
1628.8466,0.018536
1630.7103,0.018739
1632.5740,0.018516
1634.4376,0.018664
1636.3013,0.019549
1638.1650,0.019499
1640.0286,0.019176
1641.8923,0.019090
1643.7560,0.018667
1645.6197,0.018843
1647.4833,0.019673
1649.3470,0.018606
1651.2107,0.017556
1653.0743,0.018661
1654.9380,0.018634
1656.8017,0.017274
1658.6653,0.016513
1660.5290,0.016097
1662.3927,0.015971
1664.2563,0.015564
1666.1200,0.014617
1667.9837,0.014085
1669.8474,0.014139
1671.7110,0.013217
1673.5747,0.012130
1675.4384,0.011757
1677.3020,0.011179
1679.1657,0.010514
1681.0294,0.009898
1682.8930,0.009559
1684.7567,0.009865
1686.6204,0.008877
1688.4840,0.007897
1690.3477,0.007386
1692.2114,0.006574
1694.0750,0.005925
1695.9387,0.005718
1697.8024,0.005052
1699.6661,0.004655
1701.5297,0.004427
1703.3934,0.003871
1705.2571,0.003614
1707.1207,0.003272
1708.9844,0.002817
1710.8481,0.002553
1712.7117,0.002349
1714.5754,0.002259
1716.4391,0.002387
1718.3027,0.002531
1720.1664,0.002072
1722.0301,0.001654
1723.8937,0.001536
1725.7574,0.001352
1727.6211,0.001232
1729.4848,0.001270
1731.3484,0.001018
1733.2121,0.001049
1735.0758,0.001454
1736.9394,0.000922
1738.8031,0.000489
1740.6668,0.000513
1742.5304,0.000596
1744.3941,0.000497
1746.2578,0.000218
1748.1214,-0.000147
1749.9851,-0.000240
1751.8488,0.000013
1753.7125,-0.000185
1755.5761,-0.000544
1757.4398,-0.000575
1759.3035,-0.000558
1761.1671,-0.000525
1763.0308,-0.000533
1764.8945,-0.000715
1766.7581,-0.000821
1768.6218,-0.000827
1770.4855,-0.000706
1772.3491,-0.000353
1774.2128,-0.000370
1776.0765,-0.000678
1777.9401,-0.000937
1779.8038,-0.000927
1781.6675,-0.000770
1783.5312,-0.000623
1785.3948,-0.000558
1787.2585,-0.000699
1789.1222,-0.000612
1790.9858,-0.000293
1792.8495,-0.000139
1794.7132,-0.000378
1796.5768,-0.000586
1798.4405,-0.000515
1800.3042,-0.000449
1802.1678,-0.000572
1804.0315,-0.000877
1805.8952,-0.001002
1807.7589,-0.000854
1809.6225,-0.000842
1811.4862,-0.000962
1813.3499,-0.000997
1815.2135,-0.001075
1817.0772,-0.001082
1818.9409,-0.001028
1820.8045,-0.000955
1822.6682,-0.001038
1824.5319,-0.001204
1826.3955,-0.001047
1828.2592,-0.001001
1830.1229,-0.001107
1831.9865,-0.001162
1833.8502,-0.001181
1835.7139,-0.001156
1837.5776,-0.001044
1839.4412,-0.000964
1841.3049,-0.001041
1843.1686,-0.001036
1845.0322,-0.000842
1846.8959,-0.000843
1848.7596,-0.001023
1850.6232,-0.001119
1852.4869,-0.001074
1854.3506,-0.000933
1856.2142,-0.001030
1858.0779,-0.001186
1859.9416,-0.001080
1861.8052,-0.000952
1863.6689,-0.000976
1865.5326,-0.001058
1867.3963,-0.000993
1869.2599,-0.000643
1871.1236,-0.000651
1872.9873,-0.001075
1874.8509,-0.001168
1876.7146,-0.001036
1878.5783,-0.001057
1880.4419,-0.001104
1882.3056,-0.000948
1884.1693,-0.000729
1886.0329,-0.000863
1887.8966,-0.001155
1889.7603,-0.000994
1891.6240,-0.000867
1893.4876,-0.001044
1895.3513,-0.001143
1897.2150,-0.001033
1899.0786,-0.001000
1900.9423,-0.000921
1902.8060,-0.000836
1904.6696,-0.000948
1906.5333,-0.001016
1908.3970,-0.001030
1910.2606,-0.000810
1912.1243,-0.000820
1913.9880,-0.001091
1915.8516,-0.001075
1917.7153,-0.000637
1919.5790,-0.000602
1921.4427,-0.001143
1923.3063,-0.001358
1925.1700,-0.001219
1927.0337,-0.000884
1928.8973,-0.000598
1930.7610,-0.000535
1932.6247,-0.000523
1934.4883,-0.000815
1936.3520,-0.001170
1938.2157,-0.000985
1940.0793,-0.000848
1941.9430,-0.000865
1943.8067,-0.000637
1945.6704,-0.000362
1947.5340,-0.000680
1949.3977,-0.001065
1951.2614,-0.001005
1953.1250,-0.001299
1954.9887,-0.001798
1956.8524,-0.001724
1958.7160,-0.001696
1960.5797,-0.001861
1962.4434,-0.001199
1964.3070,-0.000441
1966.1707,0.000000
1968.0344,0.000070
1969.8980,-0.000938
1971.7617,-0.001702
1973.6254,-0.001445
1975.4891,-0.001405
1977.3527,-0.001100
1979.2164,-0.000558
1981.0801,-0.000112
1982.9437,0.000004
1984.8074,-0.000350
1986.6711,-0.000149
1988.5347,-0.000202
1990.3984,-0.000577
1992.2621,-0.000553
1994.1257,-0.000757
1995.9894,-0.001321
1997.8531,-0.001113
1999.7167,-0.000391
2001.5804,-0.000412
2003.4441,-0.000601
2005.3078,-0.000590
2007.1714,-0.000440
2009.0351,-0.000297
2010.8988,-0.000762
2012.7624,-0.001242
2014.6261,-0.001144
2016.4898,-0.000567
2018.3534,-0.000737
2020.2171,-0.001396
2022.0808,-0.000549
2023.9444,0.000657
2025.8081,-0.000051
2027.6718,-0.001260
2029.5355,-0.001380
2031.3991,-0.000640
2033.2628,0.000249
2035.1265,0.000052
2036.9901,-0.000224
2038.8538,-0.000370
2040.7175,-0.001047
2042.5811,-0.001350
2044.4448,-0.001024
2046.3085,-0.000193
2048.1721,0.000332
2050.0358,0.000255
2051.8995,0.000011
2053.7631,-0.000213
2055.6268,-0.000436
2057.4905,-0.000508
2059.3542,-0.000290
2061.2178,-0.000574
2063.0815,-0.000876
2064.9452,-0.000511
2066.8088,-0.000282
2068.6725,-0.000225
2070.5362,-0.000451
2072.3998,-0.000783
2074.2635,-0.000496
2076.1272,-0.000560
2077.9908,-0.000907
2079.8545,-0.000550
2081.7182,-0.000100
2083.5819,-0.000328
2085.4455,-0.000845
2087.3092,-0.000829
2089.1729,-0.000613
2091.0365,-0.000527
2092.9002,-0.000295
2094.7639,-0.000473
2096.6275,-0.000902
2098.4912,-0.000582
2100.3549,-0.000397
2102.2185,-0.000799
2104.0822,-0.000889
2105.9459,-0.000756
2107.8095,-0.000791
2109.6732,-0.000847
2111.5369,-0.000987
2113.4006,-0.000839
2115.2642,-0.000383
2117.1279,-0.000273
2118.9916,-0.000808
2120.8552,-0.001538
2122.7189,-0.001414
2124.5826,-0.001032
2126.4462,-0.001393
2128.3099,-0.001766
2130.1736,-0.001756
2132.0372,-0.001540
2133.9009,-0.001342
2135.7646,-0.001122
2137.6282,-0.001026
2139.4919,-0.001253
2141.3556,-0.000999
2143.2193,-0.000762
2145.0829,-0.001094
2146.9466,-0.001335
2148.8103,-0.001298
2150.6739,-0.001533
2152.5376,-0.001759
2154.4013,-0.001405
2156.2649,-0.001409
2158.1286,-0.001515
2159.9923,-0.000523
2161.8559,0.000005
2163.7196,-0.000123
2165.5833,-0.000105
2167.4470,-0.000358
2169.3106,-0.000197
2171.1743,0.000106
2173.0380,-0.000346
2174.9016,-0.000839
2176.7653,-0.000687
2178.6290,-0.000661
2180.4926,-0.000624
2182.3563,-0.000496
2184.2200,-0.000881
2186.0836,-0.001030
2187.9473,-0.000680
2189.8110,-0.000281
2191.6746,-0.000187
2193.5383,-0.000460
2195.4020,-0.000508
2197.2657,-0.000542
2199.1293,-0.000767
2200.9930,-0.000898
2202.8567,-0.000997
2204.7203,-0.000529
2206.5840,-0.000323
2208.4477,-0.001175
2210.3113,-0.001390
2212.1750,-0.000591
2214.0387,-0.000883
2215.9023,-0.001427
2217.7660,-0.001021
2219.6297,-0.000706
2221.4934,-0.000603
2223.3570,-0.000627
2225.2207,-0.000655
2227.0844,-0.000657
2228.9480,-0.000792
2230.8117,-0.000910
2232.6754,-0.000988
2234.5390,-0.000794
2236.4027,-0.000604
2238.2664,-0.000511
2240.1300,-0.000794
2241.9937,-0.001442
2243.8574,-0.001275
2245.7210,-0.001031
2247.5847,-0.000886
2249.4484,-0.000207
2251.3121,-0.000273
2253.1757,-0.000863
2255.0394,-0.000964
2256.9031,-0.000818
2258.7667,-0.000727
2260.6304,-0.000774
2262.4941,-0.000890
2264.3577,-0.000823
2266.2214,-0.000819
2268.0851,-0.001026
2269.9487,-0.001433
2271.8124,-0.001713
2273.6761,-0.001292
2275.5397,-0.000899
2277.4034,-0.001054
2279.2671,-0.001107
2281.1308,-0.000845
2282.9944,-0.000835
2284.8581,-0.000990
2286.7218,-0.000790
2288.5854,-0.000897
2290.4491,-0.001309
2292.3128,-0.001146
2294.1764,-0.000676
2296.0401,-0.000637
2297.9038,-0.000923
2299.7674,-0.001020
2301.6311,-0.000982
2303.4948,-0.001009
2305.3585,-0.001272
2307.2221,-0.001437
2309.0858,-0.001177
2310.9495,-0.001061
2312.8131,-0.000881
2314.6768,-0.000414
2316.5405,-0.000483
2318.4041,-0.000766
2320.2678,-0.000688
2322.1315,-0.000462
2323.9951,-0.000374
2325.8588,-0.000771
2327.7225,-0.001216
2329.5861,-0.001092
2331.4498,-0.000833
2333.3135,-0.000870
2335.1772,-0.001064
2337.0408,-0.001167
2338.9045,-0.001059
2340.7682,-0.001332
2342.6318,-0.001410
2344.4955,-0.001113
2346.3592,-0.001078
2348.2228,-0.001182
2350.0865,-0.001255
2351.9502,-0.001327
2353.8138,-0.001516
2355.6775,-0.001218
2357.5412,-0.000583
2359.4049,-0.000588
2361.2685,-0.000877
2363.1322,-0.001072
2364.9959,-0.000870
2366.8595,-0.000998
2368.7232,-0.001426
2370.5869,-0.001538
2372.4505,-0.001485
2374.3142,-0.001321
2376.1779,-0.001389
2378.0415,-0.001569
2379.9052,-0.001730
2381.7689,-0.001868
2383.6325,-0.001808
2385.4962,-0.001696
2387.3599,-0.001802
2389.2236,-0.001986
2391.0872,-0.002103
2392.9509,-0.002144
2394.8146,-0.002078
2396.6782,-0.001916
2398.5419,-0.001648
2400.4056,-0.001744
2402.2692,-0.002075
2404.1329,-0.001985
2405.9966,-0.001602
2407.8602,-0.001592
2409.7239,-0.002059
2411.5876,-0.002336
2413.4512,-0.002027
2415.3149,-0.001702
2417.1786,-0.001820
2419.0423,-0.001830
2420.9059,-0.001673
2422.7696,-0.001819
2424.6333,-0.001838
2426.4969,-0.001696
2428.3606,-0.001735
2430.2243,-0.001484
2432.0879,-0.001372
2433.9516,-0.001781
2435.8153,-0.002008
2437.6789,-0.001972
2439.5426,-0.001981
2441.4063,-0.002057
2443.2700,-0.001906
2445.1336,-0.001579
2446.9973,-0.001535
2448.8610,-0.001699
2450.7246,-0.001788
2452.5883,-0.001592
2454.4520,-0.001463
2456.3156,-0.001749
2458.1793,-0.001829
2460.0430,-0.001564
2461.9066,-0.001671
2463.7703,-0.001784
2465.6340,-0.001638
2467.4976,-0.001567
2469.3613,-0.001686
2471.2250,-0.001602
2473.0887,-0.001411
2474.9523,-0.001478
2476.8160,-0.001638
2478.6797,-0.001700
2480.5433,-0.001831
2482.4070,-0.001987
2484.2707,-0.001729
2486.1343,-0.001523
2487.9980,-0.001444
2489.8617,-0.001169
2491.7253,-0.001334
2493.5890,-0.001433
2495.4527,-0.001115
2497.3164,-0.001445
2499.1800,-0.001739
2501.0437,-0.001625
2502.9074,-0.001573
2504.7710,-0.001522
2506.6347,-0.001567
2508.4984,-0.001594
2510.3620,-0.001084
2512.2257,-0.000741
2514.0894,-0.001203
2515.9530,-0.001515
2517.8167,-0.001550
2519.6804,-0.001405
2521.5440,-0.001236
2523.4077,-0.001255
2525.2714,-0.001151
2527.1351,-0.000968
2528.9987,-0.000829
2530.8624,-0.001107
2532.7261,-0.001341
2534.5897,-0.001502
2536.4534,-0.001621
2538.3171,-0.001406
2540.1807,-0.001378
2542.0444,-0.001383
2543.9081,-0.001361
2545.7717,-0.001360
2547.6354,-0.001337
2549.4991,-0.001566
2551.3627,-0.001797
2553.2264,-0.001733
2555.0901,-0.001372
2556.9538,-0.001162
2558.8174,-0.001308
2560.6811,-0.001183
2562.5448,-0.000936
2564.4084,-0.001428
2566.2721,-0.001818
2568.1358,-0.001495
2569.9994,-0.001292
2571.8631,-0.001160
2573.7268,-0.001005
2575.5904,-0.001253
2577.4541,-0.001523
2579.3178,-0.001529
2581.1815,-0.001656
2583.0451,-0.001679
2584.9088,-0.001622
2586.7725,-0.001412
2588.6361,-0.001038
2590.4998,-0.000938
2592.3635,-0.000926
2594.2271,-0.001163
2596.0908,-0.001583
2597.9545,-0.001478
2599.8181,-0.001305
2601.6818,-0.001309
2603.5455,-0.001381
2605.4091,-0.001590
2607.2728,-0.001454
2609.1365,-0.001215
2611.0002,-0.001133
2612.8638,-0.001190
2614.7275,-0.001241
2616.5912,-0.001281
2618.4548,-0.001357
2620.3185,-0.001356
2622.1822,-0.001438
2624.0458,-0.001501
2625.9095,-0.001229
2627.7732,-0.001162
2629.6368,-0.001245
2631.5005,-0.001174
2633.3642,-0.001282
2635.2279,-0.001474
2637.0915,-0.001460
2638.9552,-0.001431
2640.8189,-0.001314
2642.6825,-0.001157
2644.5462,-0.001208
2646.4099,-0.001497
2648.2735,-0.001544
2650.1372,-0.001377
2652.0009,-0.001382
2653.8645,-0.001353
2655.7282,-0.001342
2657.5919,-0.001469
2659.4555,-0.001533
2661.3192,-0.001669
2663.1829,-0.001773
2665.0466,-0.001559
2666.9102,-0.001364
2668.7739,-0.001668
2670.6376,-0.001946
2672.5012,-0.001659
2674.3649,-0.001489
2676.2286,-0.001543
2678.0922,-0.001353
2679.9559,-0.001336
2681.8196,-0.001505
2683.6832,-0.001432
2685.5469,-0.001281
2687.4106,-0.001199
2689.2742,-0.001410
2691.1379,-0.001635
2693.0016,-0.001756
2694.8653,-0.001545
2696.7289,-0.001326
2698.5926,-0.001373
2700.4563,-0.001196
2702.3199,-0.001151
2704.1836,-0.001424
2706.0473,-0.001492
2707.9109,-0.001278
2709.7746,-0.001255
2711.6383,-0.001500
2713.5019,-0.001637
2715.3656,-0.001397
2717.2293,-0.001361
2719.0930,-0.001407
2720.9566,-0.001288
2722.8203,-0.001415
2724.6840,-0.001542
2726.5476,-0.001469
2728.4113,-0.001211
2730.2750,-0.001280
2732.1386,-0.001472
2734.0023,-0.001250
2735.8660,-0.001152
2737.7296,-0.001133
2739.5933,-0.000973
2741.4570,-0.001092
2743.3206,-0.001347
2745.1843,-0.001245
2747.0480,-0.001104
2748.9117,-0.001305
2750.7753,-0.001173
2752.6390,-0.000826
2754.5027,-0.000892
2756.3663,-0.001204
2758.2300,-0.001363
2760.0937,-0.001196
2761.9573,-0.000851
2763.8210,-0.000885
2765.6847,-0.001117
2767.5483,-0.000920
2769.4120,-0.000872
2771.2757,-0.001433
2773.1394,-0.001368
2775.0030,-0.000837
2776.8667,-0.000683
2778.7304,-0.000784
2780.5940,-0.000897
2782.4577,-0.000799
2784.3214,-0.000686
2786.1850,-0.001043
2788.0487,-0.001351
2789.9124,-0.001083
2791.7760,-0.000623
2793.6397,-0.000399
2795.5034,-0.000347
2797.3670,-0.000456
2799.2307,-0.000698
2801.0944,-0.000551
2802.9581,-0.000454
2804.8217,-0.000467
2806.6854,-0.000305
2808.5491,-0.000268
2810.4127,-0.000136
2812.2764,-0.000127
2814.1401,-0.000269
2816.0037,-0.000512
2817.8674,-0.000387
2819.7311,0.000098
2821.5947,0.000105
2823.4584,0.000050
2825.3221,0.000176
2827.1857,0.000170
2829.0494,-0.000066
2830.9131,-0.000120
2832.7768,0.000146
2834.6404,0.000344
2836.5041,0.000279
2838.3678,0.000330
2840.2314,0.000584
2842.0951,0.000463
2843.9588,0.000315
2845.8224,0.000925
2847.6861,0.001315
2849.5498,0.001301
2851.4134,0.001084
2853.2771,0.001057
2855.1408,0.001479
2857.0045,0.001467
2858.8681,0.001307
2860.7318,0.001401
2862.5955,0.001400
2864.4591,0.001392
2866.3228,0.001587
2868.1865,0.001651
2870.0501,0.001366
2871.9138,0.001340
2873.7775,0.001670
2875.6411,0.002103
2877.5048,0.002146
2879.3685,0.001788
2881.2321,0.001883
2883.0958,0.002003
2884.9595,0.002039
2886.8232,0.001947
2888.6868,0.001833
2890.5505,0.001914
2892.4142,0.001758
2894.2778,0.001973
2896.1415,0.002332
2898.0052,0.002270
2899.8688,0.002480
2901.7325,0.002489
2903.5962,0.002121
2905.4598,0.002072
2907.3235,0.002545
2909.1872,0.002926
2911.0509,0.002637
2912.9145,0.002406
2914.7782,0.002504
2916.6419,0.002741
2918.5055,0.003205
2920.3692,0.003165
2922.2329,0.002857
2924.0965,0.003091
2925.9602,0.003489
2927.8239,0.003563
2929.6875,0.003137
2931.5512,0.002988
2933.4149,0.003229
2935.2785,0.003125
2937.1422,0.002937
2939.0059,0.002911
2940.8696,0.002748
2942.7332,0.002155
2944.5969,0.001906
2946.4606,0.002349
2948.3242,0.002434
2950.1879,0.002514
2952.0516,0.002559
2953.9152,0.002270
2955.7789,0.001972
2957.6426,0.001902
2959.5062,0.001916
2961.3699,0.002123
2963.2336,0.002163
2965.0972,0.001972
2966.9609,0.001975
2968.8246,0.002260
2970.6883,0.001747
2972.5519,0.001183
2974.4156,0.001422
2976.2793,0.001719
2978.1429,0.001817
2980.0066,0.001878
2981.8703,0.001582
2983.7339,0.001297
2985.5976,0.001414
2987.4613,0.001577
2989.3249,0.001208
2991.1886,0.000874
2993.0523,0.001059
2994.9160,0.001146
2996.7796,0.000760
2998.6433,0.000649
3000.5070,0.001233
3002.3706,0.001714
3004.2343,0.001598
3006.0980,0.001181
3007.9616,0.001101
3009.8253,0.001121
3011.6890,0.000950
3013.5526,0.001152
3015.4163,0.001185
3017.2800,0.000896
3019.1436,0.001012
3021.0073,0.001082
3022.8710,0.001271
3024.7347,0.001560
3026.5983,0.001560
3028.4620,0.001532
3030.3257,0.001445
3032.1893,0.001678
3034.0530,0.001794
3035.9167,0.001699
3037.7803,0.001450
3039.6440,0.001174
3041.5077,0.001247
3043.3713,0.001789
3045.2350,0.002161
3047.0987,0.001935
3048.9624,0.001767
3050.8260,0.001682
3052.6897,0.001640
3054.5534,0.002074
3056.4170,0.002359
3058.2807,0.002196
3060.1444,0.002148
3062.0080,0.002118
3063.8717,0.002096
3065.7354,0.002489
3067.5990,0.003041
3069.4627,0.002748
3071.3264,0.002127
3073.1900,0.001942
3075.0537,0.002181
3076.9174,0.002591
3078.7811,0.002460
3080.6447,0.002687
3082.5084,0.003073
3084.3721,0.002980
3086.2357,0.003119
3088.0994,0.002918
3089.9631,0.002409
3091.8267,0.002482
3093.6904,0.002741
3095.5541,0.002702
3097.4177,0.002870
3099.2814,0.003235
3101.1451,0.003137
3103.0087,0.003449
3104.8724,0.003739
3106.7361,0.003681
3108.5998,0.003575
3110.4634,0.003911
3112.3271,0.003509
3114.1908,0.003208
3116.0544,0.003447
3117.9181,0.003557
3119.7818,0.003349
3121.6454,0.002861
3123.5091,0.002953
3125.3728,0.003429
3127.2364,0.003591
3129.1001,0.003400
3130.9638,0.003488
3132.8275,0.004173
3134.6911,0.004651
3136.5548,0.004720
3138.4185,0.003985
3140.2821,0.003277
3142.1458,0.003396
3144.0095,0.003859
3145.8731,0.004492
3147.7368,0.004806
3149.6005,0.004931
3151.4641,0.005139
3153.3278,0.005017
3155.1915,0.005031
3157.0551,0.004991
3158.9188,0.004712
3160.7825,0.004459
3162.6462,0.004534
3164.5098,0.004801
3166.3735,0.005079
3168.2372,0.005568
3170.1008,0.005449
3171.9645,0.005223
3173.8282,0.005681
3175.6918,0.005500
3177.5555,0.005219
3179.4192,0.005660
3181.2828,0.006162
3183.1465,0.005927
3185.0102,0.006020
3186.8739,0.006640
3188.7375,0.005983
3190.6012,0.005448
3192.4649,0.006329
3194.3285,0.006891
3196.1922,0.006486
3198.0559,0.006394
3199.9195,0.006235
3201.7832,0.005887
3203.6469,0.005576
3205.5105,0.006511
3207.3742,0.007137
3209.2379,0.006915
3211.1015,0.006465
3212.9652,0.006082
3214.8289,0.006048
3216.6926,0.006669
3218.5562,0.006971
3220.4199,0.006239
3222.2836,0.006201
3224.1472,0.006951
3226.0109,0.006987
3227.8746,0.006313
3229.7382,0.005815
3231.6019,0.007098
3233.4656,0.008323
3235.3292,0.007931
3237.1929,0.008207
3239.0566,0.007972
3240.9202,0.006672
3242.7839,0.006981
3244.6476,0.007829
3246.5113,0.008272
3248.3749,0.007920
3250.2386,0.007537
3252.1023,0.007424
3253.9659,0.007499
3255.8296,0.007316
3257.6933,0.007335
3259.5569,0.007431
3261.4206,0.007337
3263.2843,0.007157
3265.1479,0.007515
3267.0116,0.008231
3268.8753,0.008342
3270.7390,0.007537
3272.6026,0.007530
3274.4663,0.008266
3276.3300,0.008547
3278.1936,0.008129
3280.0573,0.007961
3281.9210,0.007898
3283.7846,0.007507
3285.6483,0.007479
3287.5120,0.007715
3289.3756,0.007794
3291.2393,0.007992
3293.1030,0.007941
3294.9666,0.007394
3296.8303,0.007403
3298.6940,0.007924
3300.5577,0.008133
3302.4213,0.007920
3304.2850,0.008163
3306.1487,0.008513
3308.0123,0.008250
3309.8760,0.008165
3311.7397,0.008351
3313.6033,0.008035
3315.4670,0.007822
3317.3307,0.008025
3319.1943,0.007857
3321.0580,0.007383
3322.9217,0.008175
3324.7854,0.008518
3326.6490,0.008055
3328.5127,0.007390
3330.3764,0.007130
3332.2400,0.008030
3334.1037,0.008204
3335.9674,0.007600
3337.8310,0.007777
3339.6947,0.008740
3341.5584,0.008800
3343.4220,0.007614
3345.2857,0.007655
3347.1494,0.008350
3349.0130,0.006969
3350.8767,0.005620
3352.7404,0.007067
3354.6041,0.007947
3356.4677,0.007042
3358.3314,0.006761
3360.1951,0.007770
3362.0587,0.007923
3363.9224,0.007803
3365.7861,0.008223
3367.6497,0.007389
3369.5134,0.006569
3371.3771,0.006915
3373.2407,0.006814
3375.1044,0.007354
3376.9681,0.007844
3378.8317,0.007067
3380.6954,0.006589
3382.5591,0.006546
3384.4228,0.006334
3386.2864,0.006830
3388.1501,0.006262
3390.0138,0.006647
3391.8774,0.007747
3393.7411,0.007423
3395.6048,0.006170
3397.4684,0.006081
3399.3321,0.007191
3401.1958,0.007565
3403.0594,0.007482
3404.9231,0.006017
3406.7868,0.005328
3408.6505,0.005939
3410.5141,0.006474
3412.3778,0.005761
3414.2415,0.005134
3416.1051,0.005444
3417.9688,0.006577
3419.8325,0.007334
3421.6961,0.007122
3423.5598,0.005971
3425.4235,0.005271
3427.2871,0.005388
3429.1508,0.005840
3431.0145,0.005644
3432.8781,0.004854
3434.7418,0.005255
3436.6055,0.005569
3438.4692,0.005327
3440.3328,0.005408
3442.1965,0.006108
3444.0602,0.006233
3445.9238,0.005538
3447.7875,0.005399
3449.6512,0.006660
3451.5148,0.006347
3453.3785,0.005011
3455.2422,0.005292
3457.1058,0.006558
3458.9695,0.006037
3460.8332,0.005596
3462.6969,0.006033
3464.5605,0.004607
3466.4242,0.004920
3468.2879,0.005493
3470.1515,0.004303
3472.0152,0.004728
3473.8789,0.005458
3475.7425,0.004581
3477.6062,0.003395
3479.4699,0.003314
3481.3335,0.004188
3483.1972,0.005100
3485.0609,0.004910
3486.9245,0.003640
3488.7882,0.004046
3490.6519,0.004949
3492.5156,0.004694
3494.3792,0.004292
3496.2429,0.004057
3498.1066,0.004355
3499.9702,0.004686
3501.8339,0.004086
3503.6976,0.003663
3505.5612,0.004012
3507.4249,0.003882
3509.2886,0.003257
3511.1522,0.003112
3513.0159,0.003095
3514.8796,0.003364
3516.7432,0.004396
3518.6069,0.003985
3520.4706,0.004247
3522.3343,0.003587
3524.1979,0.001561
3526.0616,0.002255
3527.9253,0.002588
3529.7889,0.002402
3531.6526,0.003709
3533.5163,0.004411
3535.3799,0.003218
3537.2436,0.001962
3539.1073,0.002992
3540.9709,0.003786
3542.8346,0.003396
3544.6983,0.003218
3546.5620,0.002951
3548.4256,0.002551
3550.2893,0.002536
3552.1530,0.001807
3554.0166,0.001322
3555.8803,0.001189
3557.7440,0.000934
3559.6076,0.001366
3561.4713,0.001994
3563.3350,0.002717
3565.1986,0.002657
3567.0623,0.001800
3568.9260,0.001843
3570.7896,0.002505
3572.6533,0.002663
3574.5170,0.002272
3576.3807,0.001628
3578.2443,0.001586
3580.1080,0.002086
3581.9717,0.002497
3583.8353,0.001519
3585.6990,0.000827
3587.5627,0.000865
3589.4263,0.001653
3591.2900,0.002837
3593.1537,0.002019
3595.0173,0.000559
3596.8810,0.000174
3598.7447,0.000829
3600.6084,0.000784
3602.4720,0.000621
3604.3357,0.001442
3606.1994,0.002066
3608.0630,0.000930
3609.9267,0.000358
3611.7904,0.000454
3613.6540,-0.000165
3615.5177,-0.000204
3617.3814,0.000874
3619.2450,0.000493
3621.1087,0.000094
3622.9724,0.001155
3624.8360,0.001157
3626.6997,0.000602
3628.5634,-0.000263
3630.4271,0.000005
3632.2907,0.001002
3634.1544,0.000643
3636.0181,0.000607
3637.8817,0.000947
3639.7454,0.001210
3641.6091,0.000311
3643.4727,-0.000703
3645.3364,-0.000545
3647.2001,0.000379
3649.0637,0.000316
3650.9274,-0.000430
3652.7911,-0.000632
3654.6547,-0.000097
3656.5184,0.000044
3658.3821,0.000162
3660.2458,0.000060
3662.1094,-0.000368
3663.9731,-0.000409
3665.8368,-0.000072
3667.7004,-0.000559
3669.5641,-0.001262
3671.4278,0.000287
3673.2914,0.001193
3675.1551,0.000364
3677.0188,-0.000228
3678.8824,-0.000032
3680.7461,-0.000378
3682.6098,-0.000811
3684.4735,-0.000566
3686.3371,0.000158
3688.2008,0.000043
3690.0645,-0.000265
3691.9281,-0.000188
3693.7918,-0.000467
3695.6555,-0.000593
3697.5191,-0.000345
3699.3828,-0.000393
3701.2465,-0.000543
3703.1101,-0.000784
3704.9738,-0.000133
3706.8375,0.000300
3708.7011,-0.000337
3710.5648,-0.000998
3712.4285,-0.000767
3714.2922,-0.000419
3716.1558,-0.000492
3718.0195,-0.000539
3719.8832,-0.000205
3721.7468,0.000000
3723.6105,0.000103
3725.4742,-0.000040
3727.3378,-0.000099
3729.2015,0.000478
3731.0652,0.000056
3732.9288,-0.001017
3734.7925,-0.001452
3736.6562,-0.000519
3738.5199,0.000506
3740.3835,0.000219
3742.2472,-0.000293
3744.1109,-0.001887
3745.9745,-0.002018
3747.8382,0.000368
3749.7019,0.000105
3751.5655,-0.000397
3753.4292,0.000488
3755.2929,0.000882
3757.1565,0.000148
3759.0202,0.000135
3760.8839,0.000702
3762.7475,0.000674
3764.6112,0.000117
3766.4749,-0.000141
3768.3386,-0.000026
3770.2022,0.000011
3772.0659,0.000482
3773.9296,0.000540
3775.7932,0.000625
3777.6569,0.000868
3779.5206,-0.000135
3781.3842,-0.000248
3783.2479,-0.000044
3785.1116,0.000056
3786.9752,0.000559
3788.8389,0.000473
3790.7026,0.000230
3792.5662,0.000282
3794.4299,0.000339
3796.2936,0.000138
3798.1573,0.000582
3800.0209,0.000164
3801.8846,-0.001133
3803.7483,-0.000428
3805.6119,0.000378
3807.4756,0.000001
3809.3393,0.000663
3811.2029,0.001030
3813.0666,0.000487
3814.9303,-0.000055
3816.7939,-0.000090
3818.6576,0.000886
3820.5213,0.000227
3822.3850,-0.000064
3824.2486,0.001061
3826.1123,0.000376
3827.9760,0.000043
3829.8396,0.000903
3831.7033,0.001031
3833.5670,0.001167
3835.4306,0.001242
3837.2943,0.000474
3839.1580,0.000139
3841.0216,0.000167
3842.8853,-0.000337
3844.7490,0.000403
3846.6126,0.001202
3848.4763,0.001010
3850.3400,0.001219
3852.2037,0.000815
3854.0673,0.000174
3855.9310,0.000735
3857.7947,0.000983
3859.6583,0.000851
3861.5220,0.000133
3863.3857,0.000457
3865.2493,0.000958
3867.1130,0.001171
3868.9767,0.001389
3870.8403,0.001250
3872.7040,0.001257
3874.5677,0.000884
3876.4314,0.000922
3878.2950,0.000989
3880.1587,0.000296
3882.0224,0.000433
3883.8860,0.000956
3885.7497,0.001395
3887.6134,0.001921
3889.4770,0.001115
3891.3407,-0.000338
3893.2044,-0.000290
3895.0680,0.000657
3896.9317,0.001444
3898.7954,0.001304
3900.6590,0.000857
3902.5227,0.000708
3904.3864,0.000232
3906.2501,0.001008
3908.1137,0.001779
3909.9774,0.001156
3911.8411,0.001023
3913.7047,0.001295
3915.5684,0.001101
3917.4321,0.000989
3919.2957,0.000428
3921.1594,0.000301
3923.0231,0.001053
3924.8867,0.001371
3926.7504,0.001687
3928.6141,0.001343
3930.4777,0.000356
3932.3414,0.000611
3934.2051,0.001113
3936.0688,0.001314
3937.9324,0.001484
3939.7961,0.001764
3941.6598,0.001328
3943.5234,0.001219
3945.3871,0.001375
3947.2508,0.000859
3949.1144,0.000806
3950.9781,0.001305
3952.8418,0.000701
3954.7054,0.000436
3956.5691,0.001118
3958.4328,0.001493
3960.2965,0.001006
3962.1601,0.000988
3964.0238,0.001539
3965.8875,0.001048
3967.7511,0.000460
3969.6148,0.001300
3971.4785,0.001817
3973.3421,0.001562
3975.2058,0.001419
3977.0695,0.001362
3978.9331,0.001470
3980.7968,0.001429
3982.6605,0.001122
3984.5241,0.001112
3986.3878,0.001172
3988.2515,0.001866
3990.1152,0.002391
3991.9788,0.001616
3993.8425,0.001322
3995.7062,0.001232
3997.5698,0.001346
3999.4335,0.001565
4001.2972,0.001289
4003.1608,0.001283
4005.0245,0.001820
4006.8882,0.001988
4008.7518,0.001196
4010.6155,0.001247
4012.4792,0.001588
4014.3429,0.001711
4016.2065,0.001556
4018.0702,0.001812
4019.9339,0.001630
4021.7975,0.001405
4023.6612,0.002121
4025.5249,0.002776
4027.3885,0.002661
4029.2522,0.002142
4031.1159,0.001096
4032.9795,0.001188
4034.8432,0.001627
4036.7069,0.001694
4038.5705,0.001941
4040.4342,0.002004
4042.2979,0.001742
4044.1616,0.001356
4046.0252,0.001477
4047.8889,0.001407
4049.7526,0.001119
4051.6162,0.001316
4053.4799,0.002070
4055.3436,0.002306
4057.2072,0.002065
4059.0709,0.001802
4060.9346,0.001946
4062.7982,0.002097
4064.6619,0.002056
4066.5256,0.001965
4068.3892,0.001876
4070.2529,0.001880
4072.1166,0.001776
4073.9803,0.002043
4075.8439,0.002041
4077.7076,0.001529
4079.5713,0.001715
4081.4349,0.002005
4083.2986,0.002166
4085.1623,0.002407
4087.0259,0.002072
4088.8896,0.001724
4090.7533,0.002007
4092.6169,0.001971
4094.4806,0.001612
4096.3443,0.001825
4098.2080,0.002514
4100.0716,0.002426
