Wavenumber,Intensity
600.1014,-0.000016
601.9651,-0.004355
603.8287,-0.007838
605.6924,-0.014199
607.5561,-0.006993
609.4197,0.012355
611.2834,0.019329
613.1471,0.010817
615.0107,-0.001527
616.8744,0.001479
618.7381,0.008799
620.6017,0.013893
622.4654,0.011599
624.3291,0.002256
626.1928,0.000130
628.0564,0.002909
629.9201,0.005011
631.7838,0.006849
633.6474,0.003132
635.5111,0.001495
637.3748,0.001830
639.2384,0.005414
641.1021,0.005426
642.9658,0.001017
644.8294,0.000045
646.6931,0.001093
648.5568,0.001473
650.4205,0.000917
652.2841,0.001632
654.1478,0.001392
656.0115,0.002820
657.8751,0.004780
659.7388,0.003490
661.6025,0.000708
663.4661,0.000712
665.3298,0.003010
667.1935,0.009121
669.0571,0.008658
670.9208,0.002772
672.7845,0.001210
674.6481,0.001445
676.5118,0.003097
678.3755,0.003922
680.2392,0.003321
682.1028,0.002545
683.9665,0.002092
685.8302,0.001786
687.6938,0.002162
689.5575,0.002058
691.4212,0.001725
693.2848,0.001169
695.1485,0.001553
697.0122,0.002525
698.8758,0.002047
700.7395,0.000231
702.6032,0.000034
704.4669,0.000674
706.3305,0.000963
708.1942,0.000879
710.0579,0.000690
711.9215,0.000576
713.7852,0.000658
715.6489,0.000819
717.5125,0.000827
719.3762,0.000333
721.2399,0.000503
723.1035,0.000368
724.9672,0.000149
726.8309,0.000250
728.6945,0.000628
730.5582,0.000122
732.4219,-0.000111
734.2856,0.000581
736.1492,0.000757
738.0129,0.000520
739.8766,0.000569
741.7402,0.000591
743.6039,0.001009
745.4676,0.000996
747.3312,0.000987
749.1949,0.000983
751.0586,0.000697
752.9222,0.000445
754.7859,0.000609
756.6496,0.000443
758.5132,0.000234
760.3769,0.000421
762.2406,0.000881
764.1043,0.000608
765.9679,0.000140
767.8316,0.000051
769.6953,0.000179
771.5589,0.000012
773.4226,0.000328
775.2863,0.000375
777.1499,0.000006
779.0136,-0.000255
780.8773,-0.000413
782.7409,-0.000205
784.6046,-0.000028
786.4683,-0.000218
788.3320,-0.000056
790.1956,-0.000026
792.0593,-0.000418
793.9230,-0.000482
795.7866,-0.000334
797.6503,-0.000363
799.5140,-0.000266
801.3776,-0.000119
803.2413,-0.000123
805.1050,-0.000340
806.9686,-0.000235
808.8323,-0.000130
810.6960,-0.000056
812.5596,0.000009
814.4233,-0.000054
816.2870,-0.000161
818.1507,-0.000244
820.0143,-0.000345
821.8780,-0.000285
823.7417,-0.000404
825.6053,-0.000300
827.4690,-0.000249
829.3327,-0.000168
831.1963,-0.000162
833.0600,-0.000242
834.9237,-0.000204
836.7873,-0.000191
838.6510,-0.000216
840.5147,-0.000296
842.3784,-0.000271
844.2420,-0.000162
846.1057,0.000069
847.9694,0.000154
849.8330,0.000037
851.6967,-0.000017
853.5604,-0.000231
855.4240,-0.000290
857.2877,-0.000165
859.1514,-0.000035
861.0150,-0.000171
862.8787,-0.000358
864.7424,-0.000398
866.6060,-0.000308
868.4697,-0.000255
870.3334,-0.000221
872.1971,-0.000323
874.0607,-0.000424
875.9244,-0.000393
877.7881,-0.000412
879.6517,-0.000570
881.5154,-0.000442
883.3791,-0.000345
885.2427,-0.000501
887.1064,-0.000537
888.9701,-0.000371
890.8337,-0.000383
892.6974,-0.000364
894.5611,-0.000278
896.4247,-0.000386
898.2884,-0.000564
900.1521,-0.000467
902.0158,-0.000446
903.8794,-0.000510
905.7431,-0.000597
907.6068,-0.000633
909.4704,-0.000657
911.3341,-0.000539
913.1978,-0.000452
915.0614,-0.000401
916.9251,-0.000487
918.7888,-0.000631
920.6524,-0.000569
922.5161,-0.000456
924.3798,-0.000660
926.2435,-0.000713
928.1071,-0.000558
929.9708,-0.000493
931.8345,-0.000657
933.6981,-0.000810
935.5618,-0.000927
937.4255,-0.000863
939.2891,-0.000691
941.1528,-0.000699
943.0165,-0.000789
944.8801,-0.000831
946.7438,-0.000955
948.6075,-0.001036
950.4711,-0.001138
952.3348,-0.001207
954.1985,-0.001310
956.0622,-0.001502
957.9258,-0.001521
959.7895,-0.001406
961.6532,-0.001501
963.5168,-0.001688
965.3805,-0.001903
967.2442,-0.002048
969.1078,-0.002161
970.9715,-0.002170
972.8352,-0.002204
974.6988,-0.002322
976.5625,-0.002415
978.4262,-0.002426
980.2899,-0.002588
982.1535,-0.002706
984.0172,-0.002813
985.8809,-0.003008
987.7445,-0.003120
989.6082,-0.003124
991.4719,-0.003286
993.3355,-0.003404
995.1992,-0.003360
997.0629,-0.003305
998.9265,-0.003350
1000.7902,-0.003448
1002.6539,-0.003630
1004.5175,-0.003712
1006.3812,-0.003760
1008.2449,-0.003788
1010.1086,-0.003784
1011.9722,-0.003781
1013.8359,-0.003818
1015.6996,-0.003823
1017.5632,-0.003864
1019.4269,-0.003852
1021.2906,-0.003811
1023.1542,-0.003757
1025.0179,-0.003850
1026.8816,-0.003833
1028.7452,-0.003750
1030.6089,-0.003802
1032.4726,-0.003832
1034.3362,-0.003664
1036.1999,-0.003543
1038.0636,-0.003383
1039.9273,-0.003237
1041.7909,-0.003110
1043.6546,-0.003022
1045.5183,-0.002897
1047.3819,-0.002798
1049.2456,-0.002676
1051.1093,-0.002540
1052.9729,-0.002383
1054.8366,-0.002311
1056.7003,-0.002221
1058.5639,-0.002178
1060.4276,-0.002165
1062.2913,-0.002097
1064.1550,-0.001898
1066.0186,-0.001710
1067.8823,-0.001714
1069.7460,-0.001816
1071.6096,-0.001788
1073.4733,-0.001755
1075.3370,-0.001673
1077.2006,-0.001614
1079.0643,-0.001564
1080.9280,-0.001585
1082.7916,-0.001605
1084.6553,-0.001571
1086.5190,-0.001466
1088.3826,-0.001454
1090.2463,-0.001407
1092.1100,-0.001364
1093.9737,-0.001368
1095.8373,-0.001403
1097.7010,-0.001323
1099.5647,-0.001251
1101.4283,-0.001193
1103.2920,-0.001147
1105.1557,-0.001096
1107.0193,-0.000997
1108.8830,-0.000811
1110.7467,-0.000870
1112.6103,-0.000933
1114.4740,-0.000798
1116.3377,-0.000662
1118.2014,-0.000666
1120.0650,-0.000639
1121.9287,-0.000578
1123.7924,-0.000492
1125.6560,-0.000473
1127.5197,-0.000502
1129.3834,-0.000444
1131.2470,-0.000259
1133.1107,-0.000232
1134.9744,-0.000200
1136.8380,-0.000194
1138.7017,-0.000234
1140.5654,-0.000217
1142.4290,-0.000134
1144.2927,-0.000093
1146.1564,-0.000015
1148.0201,0.000012
1149.8837,0.000005
1151.7474,-0.000042
1153.6111,-0.000052
1155.4747,-0.000096
1157.3384,-0.000156
1159.2021,-0.000161
1161.0657,-0.000113
1162.9294,-0.000124
1164.7931,-0.000065
1166.6567,0.000043
1168.5204,0.000199
1170.3841,0.000181
1172.2477,0.000083
1174.1114,0.000050
1175.9751,0.000028
1177.8388,0.000016
1179.7024,0.000048
1181.5661,0.000018
1183.4298,-0.000005
1185.2934,0.000005
1187.1571,0.000081
1189.0208,0.000102
1190.8844,0.000097
1192.7481,0.000035
1194.6118,0.000058
1196.4754,0.000068
1198.3391,0.000056
1200.2028,0.000035
1202.0665,0.000143
1203.9301,0.000147
1205.7938,0.000061
1207.6575,0.000040
1209.5211,0.000111
1211.3848,0.000181
1213.2485,0.000153
1215.1121,0.000044
1216.9758,0.000090
1218.8395,0.000121
1220.7031,0.000165
1222.5668,0.000184
1224.4305,0.000213
1226.2941,0.000204
1228.1578,0.000221
1230.0215,0.000208
1231.8852,0.000193
1233.7488,0.000197
1235.6125,0.000235
1237.4762,0.000144
1239.3398,0.000098
1241.2035,0.000099
1243.0672,0.000201
1244.9308,0.000267
1246.7945,0.000282
1248.6582,0.000221
1250.5218,0.000230
1252.3855,0.000191
1254.2492,0.000177
1256.1129,0.000198
1257.9765,0.000307
1259.8402,0.000386
1261.7039,0.000263
1263.5675,0.000205
1265.4312,0.000336
1267.2949,0.000367
1269.1585,0.000417
1271.0222,0.000574
1272.8859,0.000523
1274.7495,0.000304
1276.6132,0.000186
1278.4769,0.000222
1280.3405,0.000345
1282.2042,0.000341
1284.0679,0.000317
1285.9316,0.000465
1287.7952,0.000599
1289.6589,0.000408
1291.5226,0.000295
1293.3862,0.000201
1295.2499,0.000268
1297.1136,0.000284
1298.9772,0.000224
1300.8409,0.000145
1302.7046,0.000195
1304.5682,0.000203
1306.4319,0.000278
1308.2956,0.000313
1310.1592,0.000337
1312.0229,0.000698
1313.8866,0.000999
1315.7503,0.001104
1317.6139,0.001457
1319.4776,0.001565
1321.3413,0.001012
1323.2049,0.000428
1325.0686,0.000187
1326.9323,0.000202
1328.7959,0.000287
1330.6596,0.000274
1332.5233,0.000130
1334.3869,0.000286
1336.2506,0.001218
1338.1143,0.003309
1339.9780,0.004220
1341.8416,0.002188
1343.7053,0.000480
1345.5690,0.000018
1347.4326,0.000325
1349.2963,0.000348
1351.1600,0.000290
1353.0236,0.000446
1354.8873,0.000785
1356.7510,0.000658
1358.6146,0.000624
1360.4783,0.001438
1362.3420,0.003158
1364.2056,0.002583
1366.0693,0.001049
1367.9330,0.000622
1369.7967,0.000779
1371.6603,0.001378
1373.5240,0.003194
1375.3877,0.002917
1377.2513,0.001756
1379.1150,0.000798
1380.9787,0.000667
1382.8423,0.000133
1384.7060,0.000536
1386.5697,0.002330
1388.4333,0.002460
1390.2970,0.001156
1392.1607,0.000713
1394.0244,0.003828
1395.8880,0.005116
1397.7517,0.005333
1399.6154,0.004070
1401.4790,0.001745
1403.3427,0.001146
1405.2064,0.001485
1407.0700,0.001291
1408.9337,0.000691
1410.7974,0.000865
1412.6610,0.000754
1414.5247,0.000693
1416.3884,0.002651
1418.2520,0.007465
1420.1157,0.006273
1421.9794,0.003618
1423.8431,0.002623
1425.7067,0.001510
1427.5704,0.001242
1429.4341,0.001394
1431.2977,0.001669
1433.1614,0.000923
1435.0251,0.003325
1436.8887,0.005860
1438.7524,0.003789
1440.6161,0.001115
1442.4797,-0.000314
1444.3434,0.000122
1446.2071,0.001568
1448.0707,0.003199
1449.9344,0.002087
1451.7981,0.001523
1453.6618,0.001637
1455.5254,0.007198
1457.3891,0.010722
1459.2528,0.008322
1461.1164,0.002497
1462.9801,0.001786
1464.8438,0.003006
1466.7074,0.002486
1468.5711,0.000391
1470.4348,0.002209
1472.2984,0.007890
1474.1621,0.009855
1476.0258,0.006873
1477.8895,0.002867
1479.7531,0.001718
1481.6168,0.000939
1483.4805,0.000677
1485.3441,0.001314
1487.2078,0.003506
1489.0715,0.007994
1490.9351,0.006745
1492.7988,0.002802
1494.6625,0.002212
1496.5261,0.004288
1498.3898,0.005624
1500.2535,0.003771
1502.1171,0.002068
1503.9808,0.002709
1505.8445,0.009318
1507.7082,0.017141
1509.5718,0.012903
1511.4355,0.006659
1513.2992,0.003662
1515.1628,0.005949
1517.0265,0.008284
1518.8902,0.009606
1520.7538,0.010965
1522.6175,0.010080
1524.4812,0.009907
1526.3448,0.007780
1528.2085,0.005806
1530.0722,0.003552
1531.9359,0.005765
1533.7995,0.006111
1535.6632,0.003930
1537.5269,0.004929
1539.3905,0.010904
1541.2542,0.015845
1543.1179,0.012153
1544.9815,0.009080
1546.8452,0.005269
1548.7089,0.004077
1550.5725,0.003015
1552.4362,0.004167
1554.2999,0.003929
1556.1635,0.006694
1558.0272,0.013077
1559.8909,0.014256
1561.7546,0.007840
1563.6182,0.003867
1565.4819,0.002127
1567.3456,0.003307
1569.2092,0.004296
1571.0729,0.003417
1572.9366,0.002234
1574.8002,0.003069
1576.6639,0.005811
1578.5276,0.004881
1580.3912,0.001864
1582.2549,0.000296
1584.1186,0.000682
1585.9822,0.000391
1587.8459,0.000707
1589.7096,0.000606
1591.5733,0.001099
1593.4369,0.001286
1595.3006,0.001667
1597.1643,0.001002
1599.0279,0.000804
1600.8916,0.000806
1602.7553,0.001257
1604.6189,0.001056
1606.4826,0.001477
1608.3463,0.001704
1610.2099,0.001926
1612.0736,0.000705
1613.9373,0.001036
1615.8010,0.003546
1617.6646,0.004996
1619.5283,0.003397
1621.3920,0.002355
1623.2556,0.004092
1625.1193,0.004635
1626.9830,0.003366
1628.8466,0.002064
1630.7103,0.001423
1632.5740,0.001030
1634.4376,0.005375
1636.3013,0.009347
1638.1650,0.007428
1640.0286,0.002955
1641.8923,0.001177
1643.7560,0.002308
1645.6197,0.006109
1647.4833,0.008281
1649.3470,0.005759
1651.2107,0.005553
1653.0743,0.011081
1654.9380,0.012677
1656.8017,0.006130
1658.6653,0.001186
1660.5290,0.002415
1662.3927,0.004320
1664.2563,0.003824
1666.1200,0.002282
1667.9837,0.003521
1669.8474,0.006915
1671.7110,0.007103
1673.5747,0.005796
1675.4384,0.004957
1677.3020,0.004828
1679.1657,0.004101
1681.0294,0.004064
1682.8930,0.009227
1684.7567,0.009717
1686.6204,0.009174
1688.4840,0.005211
1690.3477,0.003289
1692.2114,0.001895
1694.0750,0.003772
1695.9387,0.005621
1697.8024,0.009150
1699.6661,0.010132
1701.5297,0.009098
1703.3934,0.008106
1705.2571,0.004878
1707.1207,0.005002
1708.9844,0.003574
1710.8481,0.002205
1712.7117,0.002922
1714.5754,0.004882
1716.4391,0.008934
1718.3027,0.010121
1720.1664,0.006682
1722.0301,0.002955
1723.8937,0.001470
1725.7574,0.001600
1727.6211,0.001406
1729.4848,0.002670
1731.3484,0.004362
1733.2121,0.007551
1735.0758,0.007087
1736.9394,0.006089
1738.8031,0.003600
1740.6668,0.004802
1742.5304,0.005051
1744.3941,0.004271
1746.2578,0.004732
1748.1214,0.006411
1749.9851,0.008283
1751.8488,0.006204
1753.7125,0.003546
1755.5761,0.003138
1757.4398,0.003124
1759.3035,0.003684
1761.1671,0.002861
1763.0308,0.003192
1764.8945,0.002384
1766.7581,0.002263
1768.6218,0.003885
1770.4855,0.005815
1772.3491,0.005205
1774.2128,0.006093
1776.0765,0.004021
1777.9401,0.002535
1779.8038,0.002441
1781.6675,0.002198
1783.5312,0.002594
1785.3948,0.002210
1787.2585,0.002044
1789.1222,0.001579
1790.9858,0.003693
1792.8495,0.005440
1794.7132,0.004860
1796.5768,0.002955
1798.4405,0.002593
1800.3042,0.003312
1802.1678,0.003910
1804.0315,0.002833
1805.8952,0.001510
1807.7589,0.001327
1809.6225,0.002060
1811.4862,0.002660
1813.3499,0.002016
1815.2135,0.001049
1817.0772,0.001156
1818.9409,0.001454
1820.8045,0.001023
1822.6682,0.001616
1824.5319,0.002649
1826.3955,0.002746
1828.2592,0.003429
1830.1229,0.003312
1831.9865,0.003421
1833.8502,0.001540
1835.7139,0.001207
1837.5776,0.001733
1839.4412,0.001335
1841.3049,0.001693
1843.1686,0.003148
1845.0322,0.004184
1846.8959,0.004207
1848.7596,0.002112
1850.6232,0.001606
1852.4869,0.001155
1854.3506,0.000766
1856.2142,0.000654
1858.0779,0.000867
1859.9416,0.001114
1861.8052,0.001133
1863.6689,0.001402
1865.5326,0.002038
1867.3963,0.003262
1869.2599,0.003848
1871.1236,0.003253
1872.9873,0.001467
1874.8509,0.000759
1876.7146,0.001030
1878.5783,0.000940
1880.4419,0.000855
1882.3056,0.000916
1884.1693,0.000824
1886.0329,0.001011
1887.8966,0.001722
1889.7603,0.001856
1891.6240,0.002062
1893.4876,0.001702
1895.3513,0.001550
1897.2150,0.001474
1899.0786,0.000720
1900.9423,0.000755
1902.8060,0.000911
1904.6696,0.000887
1906.5333,0.001004
1908.3970,0.001674
1910.2606,0.001648
1912.1243,0.001432
1913.9880,0.001028
1915.8516,0.001301
1917.7153,0.001382
1919.5790,0.002051
1921.4427,0.002211
1923.3063,0.002319
1925.1700,0.002458
1927.0337,0.001130
1928.8973,0.000657
1930.7610,0.000708
1932.6247,0.000841
1934.4883,0.001217
1936.3520,0.001198
1938.2157,0.000682
1940.0793,0.001109
1941.9430,0.002052
1943.8067,0.002116
1945.6704,0.001353
1947.5340,0.000826
1949.3977,0.000853
1951.2614,0.000456
1953.1250,0.000649
1954.9887,0.000452
1956.8524,0.000225
1958.7160,0.000456
1960.5797,0.001075
1962.4434,0.001129
1964.3070,0.001048
1966.1707,0.001241
1968.0344,0.001883
1969.8980,0.001519
1971.7617,0.000936
1973.6254,0.001033
1975.4891,0.001652
1977.3527,0.001229
1979.2164,0.001175
1981.0801,0.001402
1982.9437,0.001107
1984.8074,0.000339
1986.6711,0.000484
1988.5347,0.001129
1990.3984,0.002181
1992.2621,0.002177
1994.1257,0.001743
1995.9894,0.000234
1997.8531,-0.000010
1999.7167,0.000977
2001.5804,0.000921
2003.4441,0.000375
2005.3078,0.000907
2007.1714,0.000543
2009.0351,-0.000631
2010.8988,-0.000244
2012.7624,0.000650
2014.6261,0.000600
2016.4898,0.001252
2018.3534,0.002246
2020.2171,0.001726
2022.0808,0.000717
2023.9444,0.000157
2025.8081,0.000172
2027.6718,0.001903
2029.5355,0.002309
2031.3991,0.000974
2033.2628,-0.000411
2035.1265,-0.000909
2036.9901,-0.000104
2038.8538,0.000880
2040.7175,0.001033
2042.5811,0.001213
2044.4448,0.001465
2046.3085,0.001441
2048.1721,0.000591
2050.0358,0.000454
2051.8995,0.000958
2053.7631,0.000974
2055.6268,0.000630
2057.4905,0.000422
2059.3542,0.000443
2061.2178,0.000791
2063.0815,0.000223
2064.9452,0.000970
2066.8088,0.001487
2068.6725,0.000752
2070.5362,0.000257
2072.3998,0.000200
2074.2635,0.000185
2076.1272,0.000348
2077.9908,0.000165
2079.8545,0.000269
2081.7182,0.000489
2083.5819,0.000523
2085.4455,0.000328
2087.3092,0.000282
2089.1729,-0.000076
2091.0365,0.000054
2092.9002,0.000551
2094.7639,0.000845
2096.6275,0.000495
2098.4912,0.000319
2100.3549,0.000692
2102.2185,0.000820
2104.0822,0.000345
2105.9459,0.000403
2107.8095,0.000438
2109.6732,0.000222
2111.5369,-0.000145
2113.4006,-0.000169
2115.2642,0.000190
2117.1279,0.000724
2118.9916,0.000448
2120.8552,0.000132
2122.7189,0.000272
2124.5826,0.000536
2126.4462,0.000224
2128.3099,0.000060
2130.1736,0.000181
2132.0372,0.000233
2133.9009,-0.000268
2135.7646,0.000009
2137.6282,0.000681
2139.4919,0.000502
2141.3556,-0.000288
2143.2193,-0.000137
2145.0829,0.000697
2146.9466,0.000783
2148.8103,0.000336
2150.6739,0.000411
2152.5376,-0.000567
2154.4013,-0.000402
2156.2649,0.000671
2158.1286,0.000550
2159.9923,0.000095
2161.8559,-0.000097
2163.7196,-0.000560
2165.5833,-0.000101
2167.4470,0.000230
2169.3106,-0.000267
2171.1743,-0.000400
2173.0380,0.000755
2174.9016,0.001097
2176.7653,0.000896
2178.6290,0.000885
2180.4926,0.000632
2182.3563,0.000550
2184.2200,0.000378
2186.0836,-0.000401
2187.9473,-0.000270
2189.8110,0.000016
2191.6746,0.000136
2193.5383,0.000045
2195.4020,0.000098
2197.2657,0.000211
2199.1293,0.000330
2200.9930,-0.000208
2202.8567,0.000269
2204.7203,0.000685
2206.5840,0.000306
2208.4477,0.000504
2210.3113,0.000230
2212.1750,-0.000111
2214.0387,0.000225
2215.9023,-0.000169
2217.7660,0.000326
2219.6297,0.001019
2221.4934,0.000581
2223.3570,0.000123
2225.2207,0.000196
2227.0844,0.000272
2228.9480,0.000471
2230.8117,0.000008
2232.6754,0.000337
2234.5390,0.001115
2236.4027,0.000615
2238.2664,0.000292
2240.1300,0.000556
2241.9937,0.000288
2243.8574,0.000053
2245.7210,0.000309
2247.5847,0.000534
2249.4484,0.000206
2251.3121,0.000587
2253.1757,0.000734
2255.0394,0.000692
2256.9031,0.000586
2258.7667,0.000779
2260.6304,0.000897
2262.4941,0.000461
2264.3577,0.000323
2266.2214,0.000714
2268.0851,0.000623
2269.9487,0.000468
2271.8124,0.000404
2273.6761,0.000331
2275.5397,0.000161
2277.4034,-0.000026
2279.2671,0.000215
2281.1308,0.000972
2282.9944,0.001007
2284.8581,0.001036
2286.7218,0.000819
2288.5854,0.000649
2290.4491,0.000995
2292.3128,0.001498
2294.1764,0.001304
2296.0401,0.000959
2297.9038,0.001279
2299.7674,0.001904
2301.6311,0.002173
2303.4948,0.002365
2305.3585,0.002703
2307.2221,0.003122
2309.0858,0.003628
2310.9495,0.004704
2312.8131,0.005646
2314.6768,0.006024
2316.5405,0.006231
2318.4041,0.006774
2320.2678,0.007583
2322.1315,0.008374
2323.9951,0.007881
2325.8588,0.007283
2327.7225,0.007644
2329.5861,0.008755
2331.4498,0.009064
2333.3135,0.008462
2335.1772,0.008402
2337.0408,0.008597
2338.9045,0.008663
2340.7682,0.008831
2342.6318,0.008733
2344.4955,0.009823
2346.3592,0.009014
2348.2228,0.007822
2350.0865,0.006488
2351.9502,0.006522
2353.8138,0.010325
2355.6775,0.012890
2357.5412,0.011626
2359.4049,0.009540
2361.2685,0.009204
2363.1322,0.009242
2364.9959,0.009325
2366.8595,0.010475
2368.7232,0.011460
2370.5869,0.009986
2372.4505,0.008726
2374.3142,0.008132
2376.1779,0.006742
2378.0415,0.005125
2379.9052,0.003428
2381.7689,0.002096
2383.6325,0.001289
2385.4962,0.000654
2387.3599,0.000211
2389.2236,0.000105
2391.0872,-0.000142
2392.9509,-0.000248
2394.8146,-0.000384
2396.6782,-0.000440
2398.5419,-0.000397
2400.4056,-0.000269
2402.2692,-0.000182
2404.1329,-0.000140
2405.9966,-0.000279
2407.8602,-0.000328
2409.7239,-0.000372
2411.5876,-0.000384
2413.4512,-0.000246
2415.3149,-0.000464
2417.1786,-0.000728
2419.0423,-0.000681
2420.9059,-0.000692
2422.7696,-0.000622
2424.6333,-0.000195
2426.4969,-0.000172
2428.3606,-0.000601
2430.2243,-0.000579
2432.0879,-0.000223
2433.9516,-0.000230
2435.8153,-0.000476
2437.6789,-0.000594
2439.5426,-0.000822
2441.4063,-0.000858
2443.2700,-0.000778
2445.1336,-0.000737
2446.9973,-0.000399
2448.8610,-0.000121
2450.7246,-0.000416
2452.5883,-0.000779
2454.4520,-0.000958
2456.3156,-0.000922
2458.1793,-0.000603
2460.0430,-0.000489
2461.9066,-0.000453
2463.7703,-0.000388
2465.6340,-0.000329
2467.4976,-0.000391
2469.3613,-0.000665
2471.2250,-0.001005
2473.0887,-0.001059
2474.9523,-0.000750
2476.8160,-0.000645
2478.6797,-0.000783
2480.5433,-0.000807
2482.4070,-0.000609
2484.2707,-0.000770
2486.1343,-0.000738
2487.9980,-0.000497
2489.8617,-0.000334
2491.7253,-0.000497
2493.5890,-0.000729
2495.4527,-0.000430
2497.3164,-0.000145
2499.1800,-0.000234
2501.0437,-0.000464
2502.9074,-0.000518
2504.7710,-0.000359
2506.6347,-0.000263
2508.4984,-0.000429
2510.3620,-0.000590
2512.2257,-0.000431
2514.0894,-0.000526
2515.9530,-0.000942
2517.8167,-0.001001
2519.6804,-0.000466
2521.5440,-0.000062
2523.4077,-0.000047
2525.2714,-0.000384
2527.1351,-0.000719
2528.9987,-0.000637
2530.8624,-0.000605
2532.7261,-0.000987
2534.5897,-0.001160
2536.4534,-0.001109
2538.3171,-0.000512
2540.1807,-0.000279
2542.0444,-0.000795
2543.9081,-0.000764
2545.7717,-0.000250
2547.6354,-0.000308
2549.4991,-0.000731
2551.3627,-0.001006
2553.2264,-0.000858
2555.0901,-0.000338
2556.9538,-0.000248
2558.8174,-0.000798
2560.6811,-0.000790
2562.5448,-0.000563
2564.4084,-0.000815
2566.2721,-0.000797
2568.1358,-0.000464
2569.9994,-0.000416
2571.8631,-0.000505
2573.7268,-0.000586
2575.5904,-0.000516
2577.4541,-0.000423
2579.3178,-0.000348
2581.1815,-0.000709
2583.0451,-0.001071
2584.9088,-0.000925
2586.7725,-0.000863
2588.6361,-0.001024
2590.4998,-0.000697
2592.3635,-0.000320
2594.2271,-0.000300
2596.0908,-0.000814
2597.9545,-0.001034
2599.8181,-0.000879
2601.6818,-0.000796
2603.5455,-0.000861
2605.4091,-0.000971
2607.2728,-0.000808
2609.1365,-0.000614
2611.0002,-0.000757
2612.8638,-0.000757
2614.7275,-0.000602
2616.5912,-0.000596
2618.4548,-0.000731
2620.3185,-0.000553
2622.1822,-0.000728
2624.0458,-0.001014
2625.9095,-0.000774
2627.7732,-0.000705
2629.6368,-0.000855
2631.5005,-0.000976
2633.3642,-0.000822
2635.2279,-0.000676
2637.0915,-0.000813
2638.9552,-0.001009
2640.8189,-0.000926
2642.6825,-0.000989
2644.5462,-0.000983
2646.4099,-0.000714
2648.2735,-0.000703
2650.1372,-0.001007
2652.0009,-0.001048
2653.8645,-0.000754
2655.7282,-0.000895
2657.5919,-0.001042
2659.4555,-0.000926
2661.3192,-0.000797
2663.1829,-0.001013
2665.0466,-0.001361
2666.9102,-0.001380
2668.7739,-0.001348
2670.6376,-0.001339
2672.5012,-0.001148
2674.3649,-0.001014
2676.2286,-0.001062
2678.0922,-0.001050
2679.9559,-0.001084
2681.8196,-0.001193
2683.6832,-0.001540
2685.5469,-0.001544
2687.4106,-0.001201
2689.2742,-0.001039
2691.1379,-0.001077
2693.0016,-0.001184
2694.8653,-0.001441
2696.7289,-0.001509
2698.5926,-0.001451
2700.4563,-0.001426
2702.3199,-0.001222
2704.1836,-0.001205
2706.0473,-0.001139
2707.9109,-0.001003
2709.7746,-0.001379
2711.6383,-0.001948
2713.5019,-0.001774
2715.3656,-0.001555
2717.2293,-0.001749
2719.0930,-0.001797
2720.9566,-0.001505
2722.8203,-0.001584
2724.6840,-0.001813
2726.5476,-0.001664
2728.4113,-0.001804
2730.2750,-0.001874
2732.1386,-0.001656
2734.0023,-0.001653
2735.8660,-0.001660
2737.7296,-0.001740
2739.5933,-0.001584
2741.4570,-0.001276
2743.3206,-0.001253
2745.1843,-0.001649
2747.0480,-0.001785
2748.9117,-0.001680
2750.7753,-0.001451
2752.6390,-0.001330
2754.5027,-0.001528
2756.3663,-0.001630
2758.2300,-0.001678
2760.0937,-0.001661
2761.9573,-0.001782
2763.8210,-0.001779
2765.6847,-0.001658
2767.5483,-0.001613
2769.4120,-0.001970
2771.2757,-0.002147
2773.1394,-0.001858
2775.0030,-0.001773
2776.8667,-0.001793
2778.7304,-0.001646
2780.5940,-0.001695
2782.4577,-0.002095
2784.3214,-0.002129
2786.1850,-0.001931
2788.0487,-0.001851
2789.9124,-0.001641
2791.7760,-0.001457
2793.6397,-0.001919
2795.5034,-0.002150
2797.3670,-0.001943
2799.2307,-0.001846
2801.0944,-0.001840
2802.9581,-0.001927
2804.8217,-0.002096
2806.6854,-0.002089
2808.5491,-0.001814
2810.4127,-0.001815
2812.2764,-0.002234
2814.1401,-0.002212
2816.0037,-0.002122
2817.8674,-0.002103
2819.7311,-0.001924
2821.5947,-0.002110
2823.4584,-0.002141
2825.3221,-0.002039
2827.1857,-0.002158
2829.0494,-0.002102
2830.9131,-0.001865
2832.7768,-0.001939
2834.6404,-0.002125
2836.5041,-0.002383
2838.3678,-0.002405
2840.2314,-0.002241
2842.0951,-0.002264
2843.9588,-0.002582
2845.8224,-0.002706
2847.6861,-0.002543
2849.5498,-0.002670
2851.4134,-0.002970
2853.2771,-0.002757
2855.1408,-0.002272
2857.0045,-0.002037
2858.8681,-0.002350
2860.7318,-0.002615
2862.5955,-0.002515
2864.4591,-0.002125
2866.3228,-0.002074
2868.1865,-0.002304
2870.0501,-0.002445
2871.9138,-0.002608
2873.7775,-0.002509
2875.6411,-0.002477
2877.5048,-0.002726
2879.3685,-0.002763
2881.2321,-0.002344
2883.0958,-0.002222
2884.9595,-0.002366
2886.8232,-0.002361
2888.6868,-0.002163
2890.5505,-0.002599
2892.4142,-0.002799
2894.2778,-0.002535
2896.1415,-0.002584
2898.0052,-0.002638
2899.8688,-0.002483
2901.7325,-0.002519
2903.5962,-0.002778
2905.4598,-0.002845
2907.3235,-0.002780
2909.1872,-0.002958
2911.0509,-0.003093
2912.9145,-0.002891
2914.7782,-0.002843
2916.6419,-0.003080
2918.5055,-0.003031
2920.3692,-0.002964
2922.2329,-0.003268
2924.0965,-0.003306
2925.9602,-0.002869
2927.8239,-0.002586
2929.6875,-0.002503
2931.5512,-0.002969
2933.4149,-0.003064
2935.2785,-0.002829
2937.1422,-0.002660
2939.0059,-0.002750
2940.8696,-0.002579
2942.7332,-0.002579
2944.5969,-0.002805
2946.4606,-0.002767
2948.3242,-0.002744
2950.1879,-0.003144
2952.0516,-0.003402
2953.9152,-0.003459
2955.7789,-0.003149
2957.6426,-0.002990
2959.5062,-0.002943
2961.3699,-0.002828
2963.2336,-0.003022
2965.0972,-0.003418
2966.9609,-0.002962
2968.8246,-0.002718
2970.6883,-0.003268
2972.5519,-0.003311
2974.4156,-0.002753
2976.2793,-0.002364
2978.1429,-0.002306
2980.0066,-0.002762
2981.8703,-0.003104
2983.7339,-0.003476
2985.5976,-0.003851
2987.4613,-0.003491
2989.3249,-0.003087
2991.1886,-0.002831
2993.0523,-0.002999
2994.9160,-0.003380
2996.7796,-0.003666
2998.6433,-0.003706
3000.5070,-0.003514
3002.3706,-0.003383
3004.2343,-0.003535
3006.0980,-0.003079
3007.9616,-0.002670
3009.8253,-0.003091
3011.6890,-0.003393
3013.5526,-0.003401
3015.4163,-0.003578
3017.2800,-0.003549
3019.1436,-0.003473
3021.0073,-0.003903
3022.8710,-0.003792
3024.7347,-0.003384
3026.5983,-0.003747
3028.4620,-0.004436
3030.3257,-0.004304
3032.1893,-0.003634
3034.0530,-0.003215
3035.9167,-0.003412
3037.7803,-0.004279
3039.6440,-0.004755
3041.5077,-0.004102
3043.3713,-0.003805
3045.2350,-0.003836
3047.0987,-0.003744
3048.9624,-0.003820
3050.8260,-0.004131
3052.6897,-0.004554
3054.5534,-0.004444
3056.4170,-0.003979
3058.2807,-0.003927
3060.1444,-0.004394
3062.0080,-0.004268
3063.8717,-0.003887
3065.7354,-0.004240
3067.5990,-0.004557
3069.4627,-0.004574
3071.3264,-0.004783
3073.1900,-0.004710
3075.0537,-0.004346
3076.9174,-0.003979
3078.7811,-0.004159
3080.6447,-0.004474
3082.5084,-0.004414
3084.3721,-0.004348
3086.2357,-0.004343
3088.0994,-0.004507
3089.9631,-0.005016
3091.8267,-0.005318
3093.6904,-0.004807
3095.5541,-0.004518
3097.4177,-0.004391
3099.2814,-0.004561
3101.1451,-0.004807
3103.0087,-0.004422
3104.8724,-0.004235
3106.7361,-0.004882
3108.5998,-0.005634
3110.4634,-0.005483
3112.3271,-0.004805
3114.1908,-0.004678
3116.0544,-0.004505
3117.9181,-0.004456
3119.7818,-0.005121
3121.6454,-0.005637
3123.5091,-0.005242
3125.3728,-0.004601
3127.2364,-0.004878
3129.1001,-0.005183
3130.9638,-0.005157
3132.8275,-0.005005
3134.6911,-0.004823
3136.5548,-0.005396
3138.4185,-0.006284
3140.2821,-0.006030
3142.1458,-0.005892
3144.0095,-0.006444
3145.8731,-0.006103
3147.7368,-0.005570
3149.6005,-0.005151
3151.4641,-0.004513
3153.3278,-0.004506
3155.1915,-0.005116
3157.0551,-0.005179
3158.9188,-0.005022
3160.7825,-0.005477
3162.6462,-0.005768
3164.5098,-0.006202
3166.3735,-0.006089
3168.2372,-0.005224
3170.1008,-0.004633
3171.9645,-0.004932
3173.8282,-0.005415
3175.6918,-0.005685
3177.5555,-0.005196
3179.4192,-0.005274
3181.2828,-0.005334
3183.1465,-0.005936
3185.0102,-0.006253
3186.8739,-0.006217
3188.7375,-0.006119
3190.6012,-0.005517
3192.4649,-0.004687
3194.3285,-0.004841
3196.1922,-0.005373
3198.0559,-0.005381
3199.9195,-0.005373
3201.7832,-0.006231
3203.6469,-0.006697
3205.5105,-0.005671
3207.3742,-0.005550
3209.2379,-0.005815
3211.1015,-0.005623
3212.9652,-0.005807
3214.8289,-0.006177
3216.6926,-0.006301
3218.5562,-0.005810
3220.4199,-0.005582
3222.2836,-0.005999
3224.1472,-0.006661
3226.0109,-0.006922
3227.8746,-0.007016
3229.7382,-0.006372
3231.6019,-0.005438
3233.4656,-0.004838
3235.3292,-0.005573
3237.1929,-0.006615
3239.0566,-0.006413
3240.9202,-0.006361
3242.7839,-0.005752
3244.6476,-0.005165
3246.5113,-0.006042
3248.3749,-0.006620
3250.2386,-0.006626
3252.1023,-0.006739
3253.9659,-0.006607
3255.8296,-0.005951
3257.6933,-0.006021
3259.5569,-0.006553
3261.4206,-0.006574
3263.2843,-0.006030
3265.1479,-0.005486
3267.0116,-0.005810
3268.8753,-0.006056
3270.7390,-0.006606
3272.6026,-0.007233
3274.4663,-0.006645
3276.3300,-0.006389
3278.1936,-0.006524
3280.0573,-0.006336
3281.9210,-0.006558
3283.7846,-0.007231
3285.6483,-0.006983
3287.5120,-0.006140
3289.3756,-0.006249
3291.2393,-0.006279
3293.1030,-0.005858
3294.9666,-0.006077
3296.8303,-0.006411
3298.6940,-0.007421
3300.5577,-0.007989
3302.4213,-0.008332
3304.2850,-0.008473
3306.1487,-0.007733
3308.0123,-0.007451
3309.8760,-0.007565
3311.7397,-0.007655
3313.6033,-0.007795
3315.4670,-0.007914
3317.3307,-0.007899
3319.1943,-0.007499
3321.0580,-0.007339
3322.9217,-0.007179
3324.7854,-0.007130
3326.6490,-0.007806
3328.5127,-0.008465
3330.3764,-0.007770
3332.2400,-0.007253
3334.1037,-0.007032
3335.9674,-0.007024
3337.8310,-0.007921
3339.6947,-0.008060
3341.5584,-0.007174
3343.4220,-0.006849
3345.2857,-0.007337
3347.1494,-0.007463
3349.0130,-0.007545
3350.8767,-0.008217
3352.7404,-0.008751
3354.6041,-0.008885
3356.4677,-0.008586
3358.3314,-0.007157
3360.1951,-0.006308
3362.0587,-0.006774
3363.9224,-0.008349
3365.7861,-0.008819
3367.6497,-0.007253
3369.5134,-0.006037
3371.3771,-0.007168
3373.2407,-0.008830
3375.1044,-0.009160
3376.9681,-0.009026
3378.8317,-0.008781
3380.6954,-0.008404
3382.5591,-0.007891
3384.4228,-0.007295
3386.2864,-0.006686
3388.1501,-0.006583
3390.0138,-0.007524
3391.8774,-0.008025
3393.7411,-0.007582
3395.6048,-0.007667
3397.4684,-0.008025
3399.3321,-0.008352
3401.1958,-0.008273
3403.0594,-0.007313
3404.9231,-0.007102
3406.7868,-0.007686
3408.6505,-0.007267
3410.5141,-0.007444
3412.3778,-0.008910
3414.2415,-0.009339
3416.1051,-0.008265
3417.9688,-0.008216
3419.8325,-0.008311
3421.6961,-0.007851
3423.5598,-0.007829
3425.4235,-0.008104
3427.2871,-0.009282
3429.1508,-0.008929
3431.0145,-0.007596
3432.8781,-0.007223
3434.7418,-0.007343
3436.6055,-0.007227
3438.4692,-0.008128
3440.3328,-0.008645
3442.1965,-0.008274
3444.0602,-0.008194
3445.9238,-0.007980
3447.7875,-0.006724
3449.6512,-0.007031
3451.5148,-0.007596
3453.3785,-0.007878
3455.2422,-0.008617
3457.1058,-0.008331
3458.9695,-0.007601
3460.8332,-0.007514
3462.6969,-0.007597
3464.5605,-0.006956
3466.4242,-0.007161
3468.2879,-0.008496
3470.1515,-0.008008
3472.0152,-0.007711
3473.8789,-0.008666
3475.7425,-0.008344
3477.6062,-0.008091
3479.4699,-0.008266
3481.3335,-0.007248
3483.1972,-0.006593
3485.0609,-0.006962
3486.9245,-0.006790
3488.7882,-0.007331
3490.6519,-0.007223
3492.5156,-0.007791
3494.3792,-0.008758
3496.2429,-0.008541
3498.1066,-0.007691
3499.9702,-0.006774
3501.8339,-0.005986
3503.6976,-0.005957
3505.5612,-0.007226
3507.4249,-0.008334
3509.2886,-0.007887
3511.1522,-0.007836
3513.0159,-0.007314
3514.8796,-0.006281
3516.7432,-0.006799
3518.6069,-0.007642
3520.4706,-0.007106
3522.3343,-0.006272
3524.1979,-0.005830
3526.0616,-0.006135
3527.9253,-0.006449
3529.7889,-0.007296
3531.6526,-0.007368
3533.5163,-0.006190
3535.3799,-0.006615
3537.2436,-0.007569
3539.1073,-0.008163
3540.9709,-0.007907
3542.8346,-0.006282
3544.6983,-0.005239
3546.5620,-0.005393
3548.4256,-0.005738
3550.2893,-0.007081
3552.1530,-0.007360
3554.0166,-0.006372
3555.8803,-0.006385
3557.7440,-0.007261
3559.6076,-0.008369
3561.4713,-0.007624
3563.3350,-0.005869
3565.1986,-0.003954
3567.0623,-0.001573
3568.9260,-0.001755
3570.7896,-0.004209
3572.6533,-0.005941
3574.5170,-0.006862
3576.3807,-0.007084
3578.2443,-0.007594
3580.1080,-0.007734
3581.9717,-0.007974
3583.8353,-0.007883
3585.6990,-0.006282
3587.5627,-0.001634
3589.4263,0.000165
3591.2900,-0.004438
3593.1537,-0.005928
3595.0173,-0.003626
3596.8810,-0.003889
3598.7447,-0.005675
3600.6084,-0.005736
3602.4720,-0.006095
3604.3357,-0.007592
3606.1994,-0.007662
3608.0630,-0.006251
3609.9267,-0.005248
3611.7904,-0.004954
3613.6540,-0.003886
3615.5177,-0.004477
3617.3814,-0.004555
3619.2450,-0.001810
3621.1087,-0.002018
3622.9724,-0.005903
3624.8360,-0.007926
3626.6997,-0.006947
3628.5634,-0.003607
3630.4271,0.001079
3632.2907,-0.001998
3634.1544,-0.004414
3636.0181,-0.007239
3637.8817,-0.008819
3639.7454,-0.008712
3641.6091,-0.008217
3643.4727,-0.007475
3645.3364,-0.007946
3647.2001,-0.004321
3649.0637,0.001588
3650.9274,0.003426
3652.7911,-0.000615
3654.6547,-0.006331
3656.5184,-0.006787
3658.3821,-0.007376
3660.2458,-0.008003
3662.1094,-0.008496
3663.9731,-0.008757
3665.8368,-0.008535
3667.7004,-0.008296
3669.5641,-0.005853
3671.4278,-0.001851
3673.2914,-0.002748
3675.1551,-0.001666
3677.0188,0.001113
3678.8824,-0.002526
3680.7461,-0.004203
3682.6098,-0.007365
3684.4735,-0.008565
3686.3371,-0.009900
3688.2008,-0.007206
3690.0645,-0.002174
3691.9281,-0.002071
3693.7918,-0.005176
3695.6555,-0.007984
3697.5191,-0.008405
3699.3828,-0.008986
3701.2465,-0.007912
3703.1101,-0.005406
3704.9738,-0.006205
3706.8375,-0.008202
3708.7011,-0.007510
3710.5648,-0.004798
3712.4285,-0.002963
3714.2922,-0.003716
3716.1558,-0.006514
3718.0195,-0.007971
3719.8832,-0.008296
3721.7468,-0.007677
3723.6105,-0.006830
3725.4742,-0.006600
3727.3378,-0.004674
3729.2015,-0.004951
3731.0652,-0.006202
3732.9288,-0.003773
3734.7925,-0.001178
3736.6562,0.001607
3738.5199,-0.000168
3740.3835,-0.003722
3742.2472,-0.005781
3744.1109,-0.004827
3745.9745,-0.001279
3747.8382,-0.003516
3749.7019,-0.001105
3751.5655,-0.000096
3753.4292,0.001413
3755.2929,-0.003246
3757.1565,-0.006361
3759.0202,-0.007318
3760.8839,-0.005760
3762.7475,-0.006978
3764.6112,-0.008678
3766.4749,-0.007064
3768.3386,-0.006561
3770.2022,-0.006366
3772.0659,-0.006926
3773.9296,-0.008062
3775.7932,-0.008541
3777.6569,-0.009208
3779.5206,-0.007877
3781.3842,-0.007239
3783.2479,-0.007991
3785.1116,-0.008409
3786.9752,-0.008450
3788.8389,-0.009551
3790.7026,-0.010522
3792.5662,-0.009922
3794.4299,-0.008724
3796.2936,-0.008266
3798.1573,-0.007243
3800.0209,-0.007531
3801.8846,-0.004611
3803.7483,-0.004162
3805.6119,-0.006085
3807.4756,-0.005790
3809.3393,-0.006455
3811.2029,-0.008587
3813.0666,-0.010240
3814.9303,-0.010091
3816.7939,-0.005682
3818.6576,-0.004136
3820.5213,-0.002846
3822.3850,-0.002373
3824.2486,-0.005332
3826.1123,-0.007239
3827.9760,-0.007924
3829.8396,-0.008750
3831.7033,-0.007376
3833.5670,-0.006559
3835.4306,-0.005819
3837.2943,-0.004358
3839.1580,-0.002958
3841.0216,-0.002971
3842.8853,-0.003880
3844.7490,-0.005500
3846.6126,-0.006929
3848.4763,-0.008506
3850.3400,-0.009042
3852.2037,-0.007041
3854.0673,-0.001569
3855.9310,-0.000105
3857.7947,-0.002617
3859.6583,-0.006578
3861.5220,-0.008071
3863.3857,-0.006017
3865.2493,-0.004470
3867.1130,-0.005119
3868.9767,-0.006465
3870.8403,-0.003502
3872.7040,-0.003626
3874.5677,-0.004466
3876.4314,-0.007684
3878.2950,-0.008610
3880.1587,-0.008057
3882.0224,-0.006924
3883.8860,-0.007049
3885.7497,-0.005314
3887.6134,-0.005034
3889.4770,-0.006517
3891.3407,-0.007369
3893.2044,-0.008203
3895.0680,-0.008002
3896.9317,-0.008637
3898.7954,-0.008318
3900.6590,-0.006354
3902.5227,-0.003208
3904.3864,-0.001991
3906.2501,-0.004478
3908.1137,-0.007289
3909.9774,-0.009913
3911.8411,-0.011173
3913.7047,-0.010701
3915.5684,-0.009856
3917.4321,-0.008569
3919.2957,-0.008142
3921.1594,-0.008269
3923.0231,-0.008939
3924.8867,-0.008534
3926.7504,-0.007816
3928.6141,-0.008155
3930.4777,-0.008644
3932.3414,-0.008544
3934.2051,-0.007581
3936.0688,-0.008573
3937.9324,-0.009671
3939.7961,-0.009537
3941.6598,-0.009496
3943.5234,-0.009619
3945.3871,-0.009544
3947.2508,-0.009306
3949.1144,-0.008744
3950.9781,-0.009026
3952.8418,-0.009199
3954.7054,-0.010040
3956.5691,-0.010208
3958.4328,-0.010590
3960.2965,-0.010687
3962.1601,-0.010148
3964.0238,-0.010249
3965.8875,-0.010824
3967.7511,-0.010780
3969.6148,-0.010837
3971.4785,-0.010675
3973.3421,-0.009921
3975.2058,-0.009303
3977.0695,-0.010209
3978.9331,-0.010537
3980.7968,-0.010217
3982.6605,-0.010312
3984.5241,-0.010997
3986.3878,-0.011276
3988.2515,-0.011329
3990.1152,-0.010891
3991.9788,-0.010973
3993.8425,-0.011262
3995.7062,-0.011064
3997.5698,-0.010229
3999.4335,-0.010517
4001.2972,-0.011237
4003.1608,-0.011584
4005.0245,-0.011326
4006.8882,-0.011454
4008.7518,-0.011396
4010.6155,-0.011291
4012.4792,-0.011511
4014.3429,-0.011722
4016.2065,-0.011272
4018.0702,-0.011511
4019.9339,-0.011752
4021.7975,-0.011408
4023.6612,-0.011071
4025.5249,-0.011419
4027.3885,-0.011347
4029.2522,-0.011079
4031.1159,-0.011308
4032.9795,-0.011439
4034.8432,-0.010971
4036.7069,-0.010882
4038.5705,-0.010885
4040.4342,-0.011576
4042.2979,-0.011486
4044.1616,-0.010525
4046.0252,-0.010310
4047.8889,-0.010820
4049.7526,-0.010390
4051.6162,-0.010459
4053.4799,-0.010963
4055.3436,-0.011238
4057.2072,-0.011135
4059.0709,-0.011369
4060.9346,-0.011418
4062.7982,-0.011448
4064.6619,-0.011141
4066.5256,-0.010652
4068.3892,-0.010387
4070.2529,-0.010679
4072.1166,-0.010867
4073.9803,-0.011608
4075.8439,-0.011982
4077.7076,-0.012078
4079.5713,-0.011800
4081.4349,-0.011508
4083.2986,-0.011433
4085.1623,-0.011710
4087.0259,-0.011333
4088.8896,-0.011517
4090.7533,-0.011264
4092.6169,-0.010727
4094.4806,-0.011009
4096.3443,-0.011121
4098.2080,-0.010927
4100.0716,-0.011357
