Wavenumber,Intensity
600.1014,0.023895
601.9651,0.024229
603.8287,0.022777
605.6924,0.020597
607.5561,0.024663
609.4197,0.025736
611.2834,0.027164
613.1471,0.025130
615.0107,0.027852
616.8744,0.029993
618.7381,0.031888
620.6017,0.031624
622.4654,0.027035
624.3291,0.028315
626.1928,0.031355
628.0564,0.028784
629.9201,0.028695
631.7838,0.030954
633.6474,0.032072
635.5111,0.033027
637.3748,0.033250
639.2384,0.032201
641.1021,0.031085
642.9658,0.031362
644.8294,0.031850
646.6931,0.034010
648.5568,0.035196
650.4205,0.032758
652.2841,0.030280
654.1478,0.029962
656.0115,0.031771
657.8751,0.032052
659.7388,0.031751
661.6025,0.030868
663.4661,0.032232
665.3298,0.033708
667.1935,0.037875
669.0571,0.038818
670.9208,0.034997
672.7845,0.034491
674.6481,0.034807
676.5118,0.035314
678.3755,0.036025
680.2392,0.036613
682.1028,0.037923
683.9665,0.039443
685.8302,0.040311
687.6938,0.041528
689.5575,0.043213
691.4212,0.046598
693.2848,0.050580
695.1485,0.052863
697.0122,0.051264
698.8758,0.046845
700.7395,0.042483
702.6032,0.040006
704.4669,0.038110
706.3305,0.036995
708.1942,0.037135
710.0579,0.037171
711.9215,0.035970
713.7852,0.034832
715.6489,0.034592
717.5125,0.034848
719.3762,0.035167
721.2399,0.035228
723.1035,0.035270
724.9672,0.035111
726.8309,0.035219
728.6945,0.035610
730.5582,0.035644
732.4219,0.036243
734.2856,0.036870
736.1492,0.037229
738.0129,0.037250
739.8766,0.037396
741.7402,0.037799
743.6039,0.038157
745.4676,0.038708
747.3312,0.039478
749.1949,0.040119
751.0586,0.040967
752.9222,0.042037
754.7859,0.043255
756.6496,0.044607
758.5132,0.045970
760.3769,0.047458
762.2406,0.048961
764.1043,0.050842
765.9679,0.053740
767.8316,0.057017
769.6953,0.060937
771.5589,0.065773
773.4226,0.071533
775.2863,0.077101
777.1499,0.081248
779.0136,0.082777
780.8773,0.080856
782.7409,0.077042
784.6046,0.072906
786.4683,0.069544
788.3320,0.068699
790.1956,0.070242
792.0593,0.072862
793.9230,0.075948
795.7866,0.078641
797.6503,0.078796
799.5140,0.075975
801.3776,0.070700
803.2413,0.063768
805.1050,0.056193
806.9686,0.048753
808.8323,0.042371
810.6960,0.037613
812.5596,0.034138
814.4233,0.031677
816.2870,0.029935
818.1507,0.028481
820.0143,0.027406
821.8780,0.026634
823.7417,0.025897
825.6053,0.025376
827.4690,0.025405
829.3327,0.025748
831.1963,0.025973
833.0600,0.026068
834.9237,0.026132
836.7873,0.025970
838.6510,0.025557
840.5147,0.025311
842.3784,0.024933
844.2420,0.024814
846.1057,0.024898
847.9694,0.025088
849.8330,0.025290
851.6967,0.025493
853.5604,0.025766
855.4240,0.026070
857.2877,0.026217
859.1514,0.026284
861.0150,0.026368
862.8787,0.026533
864.7424,0.026768
866.6060,0.027035
868.4697,0.027088
870.3334,0.027334
872.1971,0.027855
874.0607,0.028241
875.9244,0.028582
877.7881,0.028914
879.6517,0.029275
881.5154,0.029711
883.3791,0.030009
885.2427,0.030289
887.1064,0.030649
888.9701,0.031096
890.8337,0.031482
892.6974,0.031962
894.5611,0.032444
896.4247,0.032866
898.2884,0.033383
900.1521,0.033977
902.0158,0.034458
903.8794,0.034881
905.7431,0.035426
907.6068,0.036043
909.4704,0.036746
911.3341,0.037522
913.1978,0.038054
915.0614,0.038503
916.9251,0.038992
918.7888,0.039607
920.6524,0.039983
922.5161,0.040338
924.3798,0.040921
926.2435,0.041609
928.1071,0.042310
929.9708,0.043177
931.8345,0.043881
933.6981,0.044410
935.5618,0.045067
937.4255,0.045797
939.2891,0.046547
941.1528,0.047493
943.0165,0.048358
944.8801,0.049125
946.7438,0.049769
948.6075,0.050126
950.4711,0.050287
952.3348,0.050342
954.1985,0.050381
956.0622,0.050527
957.9258,0.050623
959.7895,0.050830
961.6532,0.051147
963.5168,0.051631
965.3805,0.052273
967.2442,0.052894
969.1078,0.053586
970.9715,0.054433
972.8352,0.055236
974.6988,0.056056
976.5625,0.056923
978.4262,0.057855
980.2899,0.058813
982.1535,0.059825
984.0172,0.060858
985.8809,0.062015
987.7445,0.063186
989.6082,0.064357
991.4719,0.065538
993.3355,0.066773
995.1992,0.068026
997.0629,0.069303
998.9265,0.070457
1000.7902,0.071619
1002.6539,0.072732
1004.5175,0.073689
1006.3812,0.074672
1008.2449,0.075751
1010.1086,0.076778
1011.9722,0.077880
1013.8359,0.079068
1015.6996,0.080385
1017.5632,0.081644
1019.4269,0.082854
1021.2906,0.084227
1023.1542,0.085720
1025.0179,0.087177
1026.8816,0.088685
1028.7452,0.090138
1030.6089,0.091603
1032.4726,0.093123
1034.3362,0.094689
1036.1999,0.096144
1038.0636,0.097505
1039.9273,0.098812
1041.7909,0.100074
1043.6546,0.101173
1045.5183,0.102410
1047.3819,0.103711
1049.2456,0.104907
1051.1093,0.105955
1052.9729,0.106948
1054.8366,0.107992
1056.7003,0.109047
1058.5639,0.109984
1060.4276,0.110926
1062.2913,0.111679
1064.1550,0.112205
1066.0186,0.112270
1067.8823,0.111996
1069.7460,0.111576
1071.6096,0.111165
1073.4733,0.110849
1075.3370,0.110402
1077.2006,0.109665
1079.0643,0.108848
1080.9280,0.107812
1082.7916,0.106540
1084.6553,0.105076
1086.5190,0.103397
1088.3826,0.101433
1090.2463,0.099429
1092.1100,0.097329
1093.9737,0.095079
1095.8373,0.092738
1097.7010,0.090595
1099.5647,0.088393
1101.4283,0.086061
1103.2920,0.083853
1105.1557,0.081812
1107.0193,0.079834
1108.8830,0.077971
1110.7467,0.076170
1112.6103,0.074616
1114.4740,0.073300
1116.3377,0.072269
1118.2014,0.071321
1120.0650,0.069951
1121.9287,0.068076
1123.7924,0.066165
1125.6560,0.064333
1127.5197,0.062506
1129.3834,0.060639
1131.2470,0.058901
1133.1107,0.057308
1134.9744,0.055913
1136.8380,0.054526
1138.7017,0.053061
1140.5654,0.051697
1142.4290,0.050560
1144.2927,0.049518
1146.1564,0.048449
1148.0201,0.047352
1149.8837,0.046336
1151.7474,0.045439
1153.6111,0.044743
1155.4747,0.044337
1157.3384,0.044579
1159.2021,0.045716
1161.0657,0.047256
1162.9294,0.047892
1164.7931,0.047167
1166.6567,0.045647
1168.5204,0.043912
1170.3841,0.042191
1172.2477,0.040630
1174.1114,0.039272
1175.9751,0.038080
1177.8388,0.036981
1179.7024,0.036030
1181.5661,0.035194
1183.4298,0.034444
1185.2934,0.033708
1187.1571,0.032992
1189.0208,0.032320
1190.8844,0.031608
1192.7481,0.030781
1194.6118,0.029999
1196.4754,0.029176
1198.3391,0.028250
1200.2028,0.027335
1202.0665,0.026462
1203.9301,0.025409
1205.7938,0.024301
1207.6575,0.023265
1209.5211,0.022190
1211.3848,0.021015
1213.2485,0.019784
1215.1121,0.018493
1216.9758,0.017242
1218.8395,0.016008
1220.7031,0.014848
1222.5668,0.013822
1224.4305,0.012925
1226.2941,0.012094
1228.1578,0.011424
1230.0215,0.010851
1231.8852,0.010359
1233.7488,0.009962
1235.6125,0.009611
1237.4762,0.009281
1239.3398,0.009070
1241.2035,0.008758
1243.0672,0.008371
1244.9308,0.008016
1246.7945,0.007701
1248.6582,0.007443
1250.5218,0.007260
1252.3855,0.007085
1254.2492,0.006915
1256.1129,0.006700
1257.9765,0.006564
1259.8402,0.006471
1261.7039,0.006316
1263.5675,0.006242
1265.4312,0.006185
1267.2949,0.006081
1269.1585,0.006038
1271.0222,0.006010
1272.8859,0.005856
1274.7495,0.005643
1276.6132,0.005530
1278.4769,0.005481
1280.3405,0.005386
1282.2042,0.005174
1284.0679,0.005015
1285.9316,0.004996
1287.7952,0.005009
1289.6589,0.004857
1291.5226,0.004757
1293.3862,0.004625
1295.2499,0.004446
1297.1136,0.004317
1298.9772,0.004222
1300.8409,0.004064
1302.7046,0.004012
1304.5682,0.004011
1306.4319,0.004086
1308.2956,0.004039
1310.1592,0.003871
1312.0229,0.004032
1313.8866,0.004239
1315.7503,0.004227
1317.6139,0.004328
1319.4776,0.004358
1321.3413,0.004008
1323.2049,0.003633
1325.0686,0.003479
1326.9323,0.003426
1328.7959,0.003392
1330.6596,0.003417
1332.5233,0.003436
1334.3869,0.003428
1336.2506,0.003668
1338.1143,0.004607
1339.9780,0.005323
1341.8416,0.004376
1343.7053,0.003515
1345.5690,0.003244
1347.4326,0.003325
1349.2963,0.003334
1351.1600,0.003257
1353.0236,0.003265
1354.8873,0.003411
1356.7510,0.003475
1358.6146,0.003444
1360.4783,0.003633
1362.3420,0.004829
1364.2056,0.004846
1366.0693,0.003738
1367.9330,0.003498
1369.7967,0.003595
1371.6603,0.003579
1373.5240,0.004389
1375.3877,0.004482
1377.2513,0.004025
1379.1150,0.003750
1380.9787,0.003634
1382.8423,0.003373
1384.7060,0.003117
1386.5697,0.004127
1388.4333,0.004595
1390.2970,0.003895
1392.1607,0.003417
1394.0244,0.004969
1395.8880,0.005774
1397.7517,0.005813
1399.6154,0.005514
1401.4790,0.004068
1403.3427,0.003707
1405.2064,0.003945
1407.0700,0.003859
1408.9337,0.003543
1410.7974,0.003733
1412.6610,0.003640
1414.5247,0.003655
1416.3884,0.004298
1418.2520,0.006537
1420.1157,0.006458
1421.9794,0.005032
1423.8431,0.004722
1425.7067,0.004085
1427.5704,0.003851
1429.4341,0.003983
1431.2977,0.004285
1433.1614,0.003800
1435.0251,0.004459
1436.8887,0.006290
1438.7524,0.005389
1440.6161,0.004151
1442.4797,0.003419
1444.3434,0.003555
1446.2071,0.004072
1448.0707,0.004877
1449.9344,0.004309
1451.7981,0.004156
1453.6618,0.003802
1455.5254,0.005964
1457.3891,0.008631
1459.2528,0.007903
1461.1164,0.004995
1462.9801,0.004022
1464.8438,0.004750
1466.7074,0.004679
1468.5711,0.003784
1470.4348,0.004232
1472.2984,0.007344
1474.1621,0.008074
1476.0258,0.006881
1477.8895,0.004949
1479.7531,0.004197
1481.6168,0.003933
1483.4805,0.003706
1485.3441,0.003986
1487.2078,0.004959
1489.0715,0.006819
1490.9351,0.006761
1492.7988,0.004787
1494.6625,0.004198
1496.5261,0.005311
1498.3898,0.006091
1500.2535,0.005484
1502.1171,0.004481
1503.9808,0.003976
1505.8445,0.007260
1507.7082,0.012255
1509.5718,0.010062
1511.4355,0.006846
1513.2992,0.004940
1515.1628,0.005844
1517.0265,0.007419
1518.8902,0.007156
1520.7538,0.008216
1522.6175,0.008525
1524.4812,0.008246
1526.3448,0.007123
1528.2085,0.006195
1530.0722,0.005140
1531.9359,0.005294
1533.7995,0.005893
1535.6632,0.005011
1537.5269,0.005104
1539.3905,0.007459
1541.2542,0.009939
1543.1179,0.008992
1544.9815,0.007963
1546.8452,0.005305
1548.7089,0.004691
1550.5725,0.004629
1552.4362,0.004819
1554.2999,0.005001
1556.1635,0.005110
1558.0272,0.007942
1559.8909,0.010413
1561.7546,0.007182
1563.6182,0.004939
1565.4819,0.003898
1567.3456,0.003998
1569.2092,0.004828
1571.0729,0.004709
1572.9366,0.003911
1574.8002,0.004208
1576.6639,0.005983
1578.5276,0.005339
1580.3912,0.004106
1582.2549,0.003423
1584.1186,0.003590
1585.9822,0.003375
1587.8459,0.003612
1589.7096,0.003770
1591.5733,0.003977
1593.4369,0.004132
1595.3006,0.004224
1597.1643,0.003932
1599.0279,0.004041
1600.8916,0.004123
1602.7553,0.004231
1604.6189,0.004212
1606.4826,0.004464
1608.3463,0.004677
1610.2099,0.004632
1612.0736,0.004219
1613.9373,0.004006
1615.8010,0.005463
1617.6646,0.006444
1619.5283,0.005320
1621.3920,0.004551
1623.2556,0.005467
1625.1193,0.005555
1626.9830,0.005126
1628.8466,0.004617
1630.7103,0.004247
1632.5740,0.003595
1634.4376,0.005513
1636.3013,0.008004
1638.1650,0.007069
1640.0286,0.005073
1641.8923,0.003963
1643.7560,0.004022
1645.6197,0.005369
1647.4833,0.007050
1649.3470,0.005866
1651.2107,0.004942
1653.0743,0.008245
1654.9380,0.009470
1656.8017,0.006367
1658.6653,0.003871
1660.5290,0.003967
1662.3927,0.005005
1664.2563,0.004945
1666.1200,0.004200
1667.9837,0.004507
1669.8474,0.006527
1671.7110,0.006632
1673.5747,0.005464
1675.4384,0.005626
1677.3020,0.005537
1679.1657,0.005090
1681.0294,0.004092
1682.8930,0.005900
1684.7567,0.007599
1686.6204,0.007463
1688.4840,0.005816
1690.3477,0.004674
1692.2114,0.003933
1694.0750,0.004216
1695.9387,0.005461
1697.8024,0.006179
1699.6661,0.007943
1701.5297,0.007533
1703.3934,0.006925
1705.2571,0.005564
1707.1207,0.005363
1708.9844,0.004742
1710.8481,0.003804
1712.7117,0.003755
1714.5754,0.004433
1716.4391,0.006513
1718.3027,0.008270
1720.1664,0.006208
1722.0301,0.004420
1723.8937,0.003586
1725.7574,0.003526
1727.6211,0.003239
1729.4848,0.003793
1731.3484,0.003957
1733.2121,0.005866
1735.0758,0.006524
1736.9394,0.005626
1738.8031,0.004582
1740.6668,0.004680
1742.5304,0.005208
1744.3941,0.004889
1746.2578,0.004996
1748.1214,0.005764
1749.9851,0.006289
1751.8488,0.005711
1753.7125,0.004350
1755.5761,0.004099
1757.4398,0.004069
1759.3035,0.004257
1761.1671,0.004303
1763.0308,0.004529
1764.8945,0.003847
1766.7581,0.003852
1768.6218,0.004381
1770.4855,0.004959
1772.3491,0.005785
1774.2128,0.006204
1776.0765,0.005032
1777.9401,0.003781
1779.8038,0.004091
1781.6675,0.004060
1783.5312,0.004318
1785.3948,0.004394
1787.2585,0.004177
1789.1222,0.003760
1790.9858,0.004825
1792.8495,0.005630
1794.7132,0.005233
1796.5768,0.004294
1798.4405,0.003837
1800.3042,0.004513
1802.1678,0.004971
1804.0315,0.004277
1805.8952,0.003497
1807.7589,0.003470
1809.6225,0.004026
1811.4862,0.004432
1813.3499,0.004006
1815.2135,0.003325
1817.0772,0.003219
1818.9409,0.003503
1820.8045,0.003505
1822.6682,0.003686
1824.5319,0.004263
1826.3955,0.004153
1828.2592,0.004339
1830.1229,0.004542
1831.9865,0.004623
1833.8502,0.003893
1835.7139,0.003551
1837.5776,0.003935
1839.4412,0.003694
1841.3049,0.003285
1843.1686,0.003751
1845.0322,0.004822
1846.8959,0.005143
1848.7596,0.004325
1850.6232,0.003787
1852.4869,0.003744
1854.3506,0.003618
1856.2142,0.003636
1858.0779,0.003513
1859.9416,0.003863
1861.8052,0.004024
1863.6689,0.004113
1865.5326,0.003950
1867.3963,0.004532
1869.2599,0.005532
1871.1236,0.005523
1872.9873,0.004561
1874.8509,0.004174
1876.7146,0.004096
1878.5783,0.004228
1880.4419,0.004458
1882.3056,0.004148
1884.1693,0.003682
1886.0329,0.003779
1887.8966,0.003905
1889.7603,0.004468
1891.6240,0.004800
1893.4876,0.004212
1895.3513,0.003900
1897.2150,0.004170
1899.0786,0.003737
1900.9423,0.003621
1902.8060,0.003551
1904.6696,0.003522
1906.5333,0.003737
1908.3970,0.004184
1910.2606,0.004061
1912.1243,0.003967
1913.9880,0.003824
1915.8516,0.003800
1917.7153,0.003581
1919.5790,0.003865
1921.4427,0.003966
1923.3063,0.003533
1925.1700,0.003381
1927.0337,0.003408
1928.8973,0.003277
1930.7610,0.003133
1932.6247,0.003286
1934.4883,0.003547
1936.3520,0.003371
1938.2157,0.003330
1940.0793,0.003178
1941.9430,0.003792
1943.8067,0.004579
1945.6704,0.004628
1947.5340,0.003437
1949.3977,0.002894
1951.2614,0.002753
1953.1250,0.003076
1954.9887,0.003227
1956.8524,0.003510
1958.7160,0.003390
1960.5797,0.003079
1962.4434,0.002801
1964.3070,0.002920
1966.1707,0.003160
1968.0344,0.003393
1969.8980,0.003246
1971.7617,0.003786
1973.6254,0.003654
1975.4891,0.003353
1977.3527,0.003937
1979.2164,0.004549
1981.0801,0.003978
1982.9437,0.003891
1984.8074,0.004796
1986.6711,0.005012
1988.5347,0.004264
1990.3984,0.004898
1992.2621,0.005381
1994.1257,0.004625
1995.9894,0.003478
1997.8531,0.003654
1999.7167,0.003699
2001.5804,0.003258
2003.4441,0.002872
2005.3078,0.003337
2007.1714,0.003363
2009.0351,0.002892
2010.8988,0.003140
2012.7624,0.003812
2014.6261,0.003890
2016.4898,0.004095
2018.3534,0.003686
2020.2171,0.003527
2022.0808,0.003749
2023.9444,0.003327
2025.8081,0.002593
2027.6718,0.002790
2029.5355,0.003096
2031.3991,0.003624
2033.2628,0.003521
2035.1265,0.003348
2036.9901,0.003290
2038.8538,0.003967
2040.7175,0.004450
2042.5811,0.004139
2044.4448,0.003307
2046.3085,0.002787
2048.1721,0.002621
2050.0358,0.003299
2051.8995,0.004064
2053.7631,0.003685
2055.6268,0.003045
2057.4905,0.003307
2059.3542,0.003109
2061.2178,0.002924
2063.0815,0.003083
2064.9452,0.003595
2066.8088,0.003796
2068.6725,0.003309
2070.5362,0.002560
2072.3998,0.002648
2074.2635,0.002590
2076.1272,0.002696
2077.9908,0.003395
2079.8545,0.003420
2081.7182,0.002933
2083.5819,0.002940
2085.4455,0.002756
2087.3092,0.003347
2089.1729,0.003731
2091.0365,0.003285
2092.9002,0.002562
2094.7639,0.002655
2096.6275,0.002685
2098.4912,0.002534
2100.3549,0.002675
2102.2185,0.002987
2104.0822,0.002938
2105.9459,0.002629
2107.8095,0.002506
2109.6732,0.002941
2111.5369,0.003066
2113.4006,0.002857
2115.2642,0.002457
2117.1279,0.002470
2118.9916,0.002769
2120.8552,0.002939
2122.7189,0.002716
2124.5826,0.002084
2126.4462,0.001855
2128.3099,0.002242
2130.1736,0.001730
2132.0372,0.001355
2133.9009,0.001635
2135.7646,0.002104
2137.6282,0.001762
2139.4919,0.001722
2141.3556,0.001916
2143.2193,0.001786
2145.0829,0.001560
2146.9466,0.001794
2148.8103,0.002348
2150.6739,0.002172
2152.5376,0.001143
2154.4013,0.000780
2156.2649,0.000401
2158.1286,-0.000518
2159.9923,0.000085
2161.8559,0.003028
2163.7196,0.003830
2165.5833,0.003936
2167.4470,0.004214
2169.3106,0.003641
2171.1743,0.002515
2173.0380,0.002371
2174.9016,0.002683
2176.7653,0.002933
2178.6290,0.003046
2180.4926,0.002855
2182.3563,0.002566
2184.2200,0.002733
2186.0836,0.002068
2187.9473,0.002084
2189.8110,0.002586
2191.6746,0.003348
2193.5383,0.003352
2195.4020,0.002928
2197.2657,0.002856
2199.1293,0.003052
2200.9930,0.002885
2202.8567,0.003190
2204.7203,0.003107
2206.5840,0.002953
2208.4477,0.002954
2210.3113,0.003287
2212.1750,0.003088
2214.0387,0.002652
2215.9023,0.002684
2217.7660,0.002811
2219.6297,0.002660
2221.4934,0.003380
2223.3570,0.003177
2225.2207,0.002434
2227.0844,0.002117
2228.9480,0.002787
2230.8117,0.003033
2232.6754,0.002666
2234.5390,0.002611
2236.4027,0.003097
2238.2664,0.002545
2240.1300,0.002246
2241.9937,0.002567
2243.8574,0.003096
2245.7210,0.003147
2247.5847,0.003191
2249.4484,0.003006
2251.3121,0.003073
2253.1757,0.002999
2255.0394,0.002871
2256.9031,0.002821
2258.7667,0.002693
2260.6304,0.002130
2262.4941,0.002394
2264.3577,0.003074
2266.2214,0.003080
2268.0851,0.002776
2269.9487,0.003025
2271.8124,0.003172
2273.6761,0.003138
2275.5397,0.002937
2277.4034,0.003148
2279.2671,0.003362
2281.1308,0.003322
2282.9944,0.003072
2284.8581,0.003178
2286.7218,0.003481
2288.5854,0.003827
2290.4491,0.003719
2292.3128,0.003482
2294.1764,0.003549
2296.0401,0.003926
2297.9038,0.004054
2299.7674,0.004029
2301.6311,0.003999
2303.4948,0.004121
2305.3585,0.004451
2307.2221,0.005222
2309.0858,0.006024
2310.9495,0.006309
2312.8131,0.006279
2314.6768,0.006406
2316.5405,0.006338
2318.4041,0.006723
2320.2678,0.007626
2322.1315,0.008821
2323.9951,0.009434
2325.8588,0.009314
2327.7225,0.008568
2329.5861,0.008662
2331.4498,0.009227
2333.3135,0.009169
2335.1772,0.008776
2337.0408,0.008592
2338.9045,0.008814
2340.7682,0.009303
2342.6318,0.009708
2344.4955,0.010345
2346.3592,0.009122
2348.2228,0.007526
2350.0865,0.006421
2351.9502,0.007462
2353.8138,0.010202
2355.6775,0.010961
2357.5412,0.010248
2359.4049,0.009961
2361.2685,0.010135
2363.1322,0.010595
2364.9959,0.010401
2366.8595,0.009764
2368.7232,0.009746
2370.5869,0.009540
2372.4505,0.008466
2374.3142,0.007870
2376.1779,0.007173
2378.0415,0.006015
2379.9052,0.004578
2381.7689,0.003322
2383.6325,0.002778
2385.4962,0.002537
2387.3599,0.002090
2389.2236,0.002120
2391.0872,0.002057
2392.9509,0.001529
2394.8146,0.001384
2396.6782,0.001715
2398.5419,0.001606
2400.4056,0.001707
2402.2692,0.001790
2404.1329,0.001608
2405.9966,0.001551
2407.8602,0.001716
2409.7239,0.001935
2411.5876,0.002130
2413.4512,0.002122
2415.3149,0.002406
2417.1786,0.002276
2419.0423,0.001853
2420.9059,0.001865
2422.7696,0.001876
2424.6333,0.001394
2426.4969,0.001575
2428.3606,0.001956
2430.2243,0.001849
2432.0879,0.001868
2433.9516,0.001943
2435.8153,0.002052
2437.6789,0.002039
2439.5426,0.001897
2441.4063,0.002032
2443.2700,0.002124
2445.1336,0.002017
2446.9973,0.001919
2448.8610,0.002057
2450.7246,0.002182
2452.5883,0.002285
2454.4520,0.001966
2456.3156,0.001869
2458.1793,0.001719
2460.0430,0.001764
2461.9066,0.001904
2463.7703,0.001761
2465.6340,0.001528
2467.4976,0.001599
2469.3613,0.001664
2471.2250,0.001610
2473.0887,0.001403
2474.9523,0.001170
2476.8160,0.001563
2478.6797,0.001956
2480.5433,0.001586
2482.4070,0.001331
2484.2707,0.001692
2486.1343,0.002239
2487.9980,0.002066
2489.8617,0.001504
2491.7253,0.001377
2493.5890,0.001552
2495.4527,0.001630
2497.3164,0.002059
2499.1800,0.002135
2501.0437,0.001778
2502.9074,0.001660
2504.7710,0.001889
2506.6347,0.001905
2508.4984,0.002122
2510.3620,0.001808
2512.2257,0.001494
2514.0894,0.001759
2515.9530,0.001900
2517.8167,0.001777
2519.6804,0.001694
2521.5440,0.001650
2523.4077,0.001870
2525.2714,0.001919
2527.1351,0.002039
2528.9987,0.001724
2530.8624,0.001288
2532.7261,0.001598
2534.5897,0.001799
2536.4534,0.001503
2538.3171,0.001495
2540.1807,0.001639
2542.0444,0.002061
2543.9081,0.002222
2545.7717,0.002052
2547.6354,0.001915
2549.4991,0.001965
2551.3627,0.002004
2553.2264,0.001858
2555.0901,0.001478
2556.9538,0.001255
2558.8174,0.001306
2560.6811,0.001738
2562.5448,0.001739
2564.4084,0.001780
2566.2721,0.001779
2568.1358,0.001749
2569.9994,0.001668
2571.8631,0.001832
2573.7268,0.001798
2575.5904,0.001754
2577.4541,0.001676
2579.3178,0.001396
2581.1815,0.001310
2583.0451,0.001515
2584.9088,0.001681
2586.7725,0.001813
2588.6361,0.001707
2590.4998,0.001455
2592.3635,0.001513
2594.2271,0.002075
2596.0908,0.002107
2597.9545,0.001522
2599.8181,0.001400
2601.6818,0.001614
2603.5455,0.001691
2605.4091,0.001802
2607.2728,0.001912
2609.1365,0.002060
2611.0002,0.001770
2612.8638,0.001312
2614.7275,0.001223
2616.5912,0.001371
2618.4548,0.001336
2620.3185,0.001559
2622.1822,0.001990
2624.0458,0.001917
2625.9095,0.001571
2627.7732,0.001674
2629.6368,0.001547
2631.5005,0.001271
2633.3642,0.001228
2635.2279,0.001445
2637.0915,0.001639
2638.9552,0.001937
2640.8189,0.001922
2642.6825,0.001652
2644.5462,0.001484
2646.4099,0.001505
2648.2735,0.001460
2650.1372,0.001461
2652.0009,0.001427
2653.8645,0.001322
2655.7282,0.001405
2657.5919,0.001304
2659.4555,0.001263
2661.3192,0.001315
2663.1829,0.001229
2665.0466,0.001311
2666.9102,0.000971
2668.7739,0.000655
2670.6376,0.000687
2672.5012,0.000821
2674.3649,0.000655
2676.2286,0.000385
2678.0922,0.000599
2679.9559,0.000929
2681.8196,0.000911
2683.6832,0.000934
2685.5469,0.001031
2687.4106,0.001146
2689.2742,0.001066
2691.1379,0.000955
2693.0016,0.001037
2694.8653,0.000898
2696.7289,0.000840
2698.5926,0.001121
2700.4563,0.001000
2702.3199,0.000792
2704.1836,0.000763
2706.0473,0.000814
2707.9109,0.000822
2709.7746,0.000476
2711.6383,0.000169
2713.5019,0.000675
2715.3656,0.001102
2717.2293,0.000872
2719.0930,0.000715
2720.9566,0.000776
2722.8203,0.000574
2724.6840,0.000454
2726.5476,0.000649
2728.4113,0.000673
2730.2750,0.000612
2732.1386,0.000719
2734.0023,0.000691
2735.8660,0.000672
2737.7296,0.000940
2739.5933,0.001226
2741.4570,0.000879
2743.3206,0.000585
2745.1843,0.000519
2747.0480,0.000406
2748.9117,0.000271
2750.7753,0.000499
2752.6390,0.000748
2754.5027,0.000692
2756.3663,0.000683
2758.2300,0.000681
2760.0937,0.000421
2761.9573,0.000290
2763.8210,0.000173
2765.6847,0.000207
2767.5483,0.000282
2769.4120,0.000445
2771.2757,0.000580
2773.1394,0.000579
2775.0030,0.000421
2776.8667,0.000511
2778.7304,0.000409
2780.5940,0.000279
2782.4577,0.000447
2784.3214,0.000474
2786.1850,0.000537
2788.0487,0.000524
2789.9124,0.000446
2791.7760,0.000530
2793.6397,0.000504
2795.5034,0.000287
2797.3670,0.000308
2799.2307,0.000170
2801.0944,-0.000164
2802.9581,0.000061
2804.8217,0.000442
2806.6854,0.000613
2808.5491,0.000426
2810.4127,0.000312
2812.2764,0.000256
2814.1401,0.000245
2816.0037,0.000165
2817.8674,-0.000234
2819.7311,-0.000142
2821.5947,-0.000046
2823.4584,-0.000122
2825.3221,0.000300
2827.1857,0.000411
2829.0494,0.000075
2830.9131,-0.000037
2832.7768,-0.000053
2834.6404,-0.000205
2836.5041,0.000147
2838.3678,0.000061
2840.2314,-0.000351
2842.0951,-0.000244
2843.9588,-0.000087
2845.8224,-0.000135
2847.6861,-0.000054
2849.5498,0.000080
2851.4134,0.000359
2853.2771,0.000438
2855.1408,0.000392
2857.0045,0.000251
2858.8681,0.000199
2860.7318,-0.000020
2862.5955,0.000019
2864.4591,0.000023
2866.3228,-0.000165
2868.1865,-0.000566
2870.0501,-0.000627
2871.9138,-0.000308
2873.7775,-0.000079
2875.6411,-0.000004
2877.5048,0.000055
2879.3685,-0.000064
2881.2321,-0.000010
2883.0958,-0.000076
2884.9595,0.000032
2886.8232,0.000036
2888.6868,-0.000148
2890.5505,-0.000417
2892.4142,-0.000491
2894.2778,-0.000418
2896.1415,-0.000448
2898.0052,-0.000931
2899.8688,-0.000908
2901.7325,-0.000604
2903.5962,-0.000140
2905.4598,0.000099
2907.3235,-0.000128
2909.1872,-0.000457
2911.0509,-0.000433
2912.9145,-0.000655
2914.7782,-0.000722
2916.6419,-0.000746
2918.5055,-0.000695
2920.3692,-0.000501
2922.2329,-0.000490
2924.0965,-0.000674
2925.9602,-0.000600
2927.8239,-0.000071
2929.6875,-0.000050
2931.5512,-0.000395
2933.4149,-0.000474
2935.2785,-0.000470
2937.1422,-0.000840
2939.0059,-0.000596
2940.8696,-0.000331
2942.7332,-0.000608
2944.5969,-0.000774
2946.4606,-0.000512
2948.3242,-0.000442
2950.1879,-0.000577
2952.0516,-0.000477
2953.9152,-0.000646
2955.7789,-0.000794
2957.6426,-0.000645
2959.5062,-0.000343
2961.3699,-0.000480
2963.2336,-0.000747
2965.0972,-0.000982
2966.9609,-0.000907
2968.8246,-0.000584
2970.6883,-0.000570
2972.5519,-0.001267
2974.4156,-0.001529
2976.2793,-0.001110
2978.1429,-0.000983
2980.0066,-0.000986
2981.8703,-0.000701
2983.7339,-0.000934
2985.5976,-0.000974
2987.4613,-0.000952
2989.3249,-0.001033
2991.1886,-0.001118
2993.0523,-0.001257
2994.9160,-0.001128
2996.7796,-0.001173
2998.6433,-0.001534
3000.5070,-0.001744
3002.3706,-0.001161
3004.2343,-0.000578
3006.0980,-0.001320
3007.9616,-0.001608
3009.8253,-0.000748
3011.6890,-0.000485
3013.5526,-0.000716
3015.4163,-0.000670
3017.2800,-0.000797
3019.1436,-0.001225
3021.0073,-0.001583
3022.8710,-0.001165
3024.7347,-0.001199
3026.5983,-0.001582
3028.4620,-0.001653
3030.3257,-0.001303
3032.1893,-0.001268
3034.0530,-0.001336
3035.9167,-0.001482
3037.7803,-0.001946
3039.6440,-0.002084
3041.5077,-0.001820
3043.3713,-0.001386
3045.2350,-0.001451
3047.0987,-0.002092
3048.9624,-0.002036
3050.8260,-0.001536
3052.6897,-0.001414
3054.5534,-0.001489
3056.4170,-0.001384
3058.2807,-0.001171
3060.1444,-0.001139
3062.0080,-0.001534
3063.8717,-0.001543
3065.7354,-0.001779
3067.5990,-0.002205
3069.4627,-0.002114
3071.3264,-0.001739
3073.1900,-0.001802
3075.0537,-0.001783
3076.9174,-0.001938
3078.7811,-0.001599
3080.6447,-0.001208
3082.5084,-0.001310
3084.3721,-0.001517
3086.2357,-0.001807
3088.0994,-0.002216
3089.9631,-0.002169
3091.8267,-0.001509
3093.6904,-0.002078
3095.5541,-0.002600
3097.4177,-0.001860
3099.2814,-0.001680
3101.1451,-0.001653
3103.0087,-0.001598
3104.8724,-0.001659
3106.7361,-0.001742
3108.5998,-0.001942
3110.4634,-0.002243
3112.3271,-0.002372
3114.1908,-0.002493
3116.0544,-0.002267
3117.9181,-0.002357
3119.7818,-0.001638
3121.6454,-0.001308
3123.5091,-0.001876
3125.3728,-0.001968
3127.2364,-0.002080
3129.1001,-0.002182
3130.9638,-0.002625
3132.8275,-0.002384
3134.6911,-0.001987
3136.5548,-0.002265
3138.4185,-0.002483
3140.2821,-0.002891
3142.1458,-0.003063
3144.0095,-0.002737
3145.8731,-0.001897
3147.7368,-0.001556
3149.6005,-0.002571
3151.4641,-0.002711
3153.3278,-0.002299
3155.1915,-0.002673
3157.0551,-0.002593
3158.9188,-0.002451
3160.7825,-0.002174
3162.6462,-0.002009
3164.5098,-0.002317
3166.3735,-0.002631
3168.2372,-0.002308
3170.1008,-0.002164
3171.9645,-0.002274
3173.8282,-0.002773
3175.6918,-0.002595
3177.5555,-0.002296
3179.4192,-0.002474
3181.2828,-0.003146
3183.1465,-0.003033
3185.0102,-0.002991
3186.8739,-0.002824
3188.7375,-0.002705
3190.6012,-0.003059
3192.4649,-0.003209
3194.3285,-0.002895
3196.1922,-0.002755
3198.0559,-0.002309
3199.9195,-0.001733
3201.7832,-0.002803
3203.6469,-0.003816
3205.5105,-0.003641
3207.3742,-0.003365
3209.2379,-0.003172
3211.1015,-0.002508
3212.9652,-0.002284
3214.8289,-0.003044
3216.6926,-0.003158
3218.5562,-0.002763
3220.4199,-0.002614
3222.2836,-0.002887
3224.1472,-0.003114
3226.0109,-0.003570
3227.8746,-0.003078
3229.7382,-0.002528
3231.6019,-0.002962
3233.4656,-0.003554
3235.3292,-0.003645
3237.1929,-0.003589
3239.0566,-0.003297
3240.9202,-0.003710
3242.7839,-0.004104
3244.6476,-0.003697
3246.5113,-0.003006
3248.3749,-0.003153
3250.2386,-0.003168
3252.1023,-0.003140
3253.9659,-0.002932
3255.8296,-0.003289
3257.6933,-0.003948
3259.5569,-0.004070
3261.4206,-0.003593
3263.2843,-0.003017
3265.1479,-0.002976
3267.0116,-0.003534
3268.8753,-0.003856
3270.7390,-0.003588
3272.6026,-0.003363
3274.4663,-0.004041
3276.3300,-0.004071
3278.1936,-0.003297
3280.0573,-0.002735
3281.9210,-0.002620
3283.7846,-0.002736
3285.6483,-0.003922
3287.5120,-0.004567
3289.3756,-0.003496
3291.2393,-0.003241
3293.1030,-0.003915
3294.9666,-0.004024
3296.8303,-0.004096
3298.6940,-0.003309
3300.5577,-0.003766
3302.4213,-0.004390
3304.2850,-0.004363
3306.1487,-0.003927
3308.0123,-0.003783
3309.8760,-0.003864
3311.7397,-0.003725
3313.6033,-0.003034
3315.4670,-0.003544
3317.3307,-0.004785
3319.1943,-0.005560
3321.0580,-0.004574
3322.9217,-0.004183
3324.7854,-0.004610
3326.6490,-0.004564
3328.5127,-0.003582
3330.3764,-0.003576
3332.2400,-0.004178
3334.1037,-0.004620
3335.9674,-0.004751
3337.8310,-0.004342
3339.6947,-0.003659
3341.5584,-0.003381
3343.4220,-0.003148
3345.2857,-0.003301
3347.1494,-0.003307
3349.0130,-0.003973
3350.8767,-0.004749
3352.7404,-0.005490
3354.6041,-0.005311
3356.4677,-0.004331
3358.3314,-0.003664
3360.1951,-0.004299
3362.0587,-0.004571
3363.9224,-0.004133
3365.7861,-0.003999
3367.6497,-0.004034
3369.5134,-0.004114
3371.3771,-0.004259
3373.2407,-0.004059
3375.1044,-0.004790
3376.9681,-0.004712
3378.8317,-0.004624
3380.6954,-0.004983
3382.5591,-0.005076
3384.4228,-0.004609
3386.2864,-0.003628
3388.1501,-0.003249
3390.0138,-0.004513
3391.8774,-0.005359
3393.7411,-0.005368
3395.6048,-0.004285
3397.4684,-0.004336
3399.3321,-0.004444
3401.1958,-0.003898
3403.0594,-0.004014
3404.9231,-0.004695
3406.7868,-0.005083
3408.6505,-0.004835
3410.5141,-0.005247
3412.3778,-0.005250
3414.2415,-0.004459
3416.1051,-0.004604
3417.9688,-0.004303
3419.8325,-0.004907
3421.6961,-0.005576
3423.5598,-0.005234
3425.4235,-0.003875
3427.2871,-0.003827
3429.1508,-0.003698
3431.0145,-0.003760
3432.8781,-0.004836
3434.7418,-0.005631
3436.6055,-0.004641
3438.4692,-0.005230
3440.3328,-0.005801
3442.1965,-0.005246
3444.0602,-0.004350
3445.9238,-0.003626
3447.7875,-0.003208
3449.6512,-0.004061
3451.5148,-0.004939
3453.3785,-0.005422
3455.2422,-0.004502
3457.1058,-0.004370
3458.9695,-0.004331
3460.8332,-0.003628
3462.6969,-0.004306
3464.5605,-0.004787
3466.4242,-0.003781
3468.2879,-0.004044
3470.1515,-0.005194
3472.0152,-0.005406
3473.8789,-0.005190
3475.7425,-0.005487
3477.6062,-0.004955
3479.4699,-0.004748
3481.3335,-0.005018
3483.1972,-0.003443
3485.0609,-0.003321
3486.9245,-0.004101
3488.7882,-0.003968
3490.6519,-0.004489
3492.5156,-0.004765
3494.3792,-0.004500
3496.2429,-0.004059
3498.1066,-0.003859
3499.9702,-0.004472
3501.8339,-0.004513
3503.6976,-0.004204
3505.5612,-0.003689
3507.4249,-0.003245
3509.2886,-0.003283
3511.1522,-0.004357
3513.0159,-0.004835
3514.8796,-0.003647
3516.7432,-0.003802
3518.6069,-0.004187
3520.4706,-0.005284
3522.3343,-0.005014
3524.1979,-0.003780
3526.0616,-0.003224
3527.9253,-0.003614
3529.7889,-0.004454
3531.6526,-0.004762
3533.5163,-0.003731
3535.3799,-0.004351
3537.2436,-0.004748
3539.1073,-0.004370
3540.9709,-0.003948
3542.8346,-0.004352
3544.6983,-0.004248
3546.5620,-0.003801
3548.4256,-0.004107
3550.2893,-0.004028
3552.1530,-0.003569
3554.0166,-0.003491
3555.8803,-0.004277
3557.7440,-0.005250
3559.6076,-0.005897
3561.4713,-0.005612
3563.3350,-0.003899
3565.1986,-0.003472
3567.0623,-0.002806
3568.9260,-0.000983
3570.7896,-0.001334
3572.6533,-0.003415
3574.5170,-0.003748
3576.3807,-0.004171
3578.2443,-0.004358
3580.1080,-0.004112
3581.9717,-0.003786
3583.8353,-0.003296
3585.6990,-0.003066
3587.5627,-0.002823
3589.4263,-0.001176
3591.2900,-0.002320
3593.1537,-0.003028
3595.0173,-0.001482
3596.8810,-0.001313
3598.7447,-0.002481
3600.6084,-0.003278
3602.4720,-0.003824
3604.3357,-0.003903
3606.1994,-0.003580
3608.0630,-0.002522
3609.9267,-0.000951
3611.7904,-0.000761
3613.6540,-0.000671
3615.5177,-0.000634
3617.3814,-0.002695
3619.2450,-0.001165
3621.1087,-0.000339
3622.9724,-0.002138
3624.8360,-0.003318
3626.6997,-0.002922
3628.5634,-0.002051
3630.4271,0.000972
3632.2907,0.000643
3634.1544,-0.001974
3636.0181,-0.003133
3637.8817,-0.003774
3639.7454,-0.002634
3641.6091,-0.002575
3643.4727,-0.003368
3645.3364,-0.003189
3647.2001,-0.003191
3649.0637,0.000103
3650.9274,0.001466
3652.7911,-0.000242
3654.6547,-0.001864
3656.5184,-0.002323
3658.3821,-0.000762
3660.2458,-0.001477
3662.1094,-0.002125
3663.9731,-0.001897
3665.8368,-0.002503
3667.7004,-0.003230
3669.5641,-0.001736
3671.4278,0.000916
3673.2914,0.001114
3675.1551,-0.000188
3677.0188,0.002540
3678.8824,0.001458
3680.7461,-0.000550
3682.6098,-0.002051
3684.4735,-0.003687
3686.3371,-0.003779
3688.2008,-0.004095
3690.0645,-0.000926
3691.9281,-0.000527
3693.7918,-0.001623
3695.6555,-0.003211
3697.5191,-0.002796
3699.3828,-0.002254
3701.2465,-0.002314
3703.1101,-0.002139
3704.9738,-0.003069
3706.8375,-0.004348
3708.7011,-0.004543
3710.5648,-0.003730
3712.4285,-0.000912
3714.2922,0.000049
3716.1558,-0.001990
3718.0195,-0.004257
3719.8832,-0.004247
3721.7468,-0.003323
3723.6105,-0.001885
3725.4742,-0.001758
3727.3378,-0.001750
3729.2015,-0.001794
3731.0652,-0.003449
3732.9288,-0.003759
3734.7925,-0.002391
3736.6562,-0.001040
3738.5199,-0.000610
3740.3835,-0.003447
3742.2472,-0.003579
3744.1109,-0.003814
3745.9745,0.000249
3747.8382,-0.000098
3749.7019,-0.002163
3751.5655,-0.000590
3753.4292,-0.000412
3755.2929,-0.001320
3757.1565,-0.002848
3759.0202,-0.002651
3760.8839,-0.003441
3762.7475,-0.003197
3764.6112,-0.004039
3766.4749,-0.003746
3768.3386,-0.003767
3770.2022,-0.003699
3772.0659,-0.002776
3773.9296,-0.003475
3775.7932,-0.004398
3777.6569,-0.004735
3779.5206,-0.004668
3781.3842,-0.003663
3783.2479,-0.004032
3785.1116,-0.004068
3786.9752,-0.003722
3788.8389,-0.004267
3790.7026,-0.005142
3792.5662,-0.005489
3794.4299,-0.004683
3796.2936,-0.004124
3798.1573,-0.003241
3800.0209,-0.003026
3801.8846,-0.002227
3803.7483,-0.002051
3805.6119,-0.004327
3807.4756,-0.003540
3809.3393,-0.001489
3811.2029,-0.003311
3813.0666,-0.004433
3814.9303,-0.004671
3816.7939,-0.003555
3818.6576,-0.002601
3820.5213,-0.004012
3822.3850,-0.001267
3824.2486,-0.001396
3826.1123,-0.003452
3827.9760,-0.003165
3829.8396,-0.003665
3831.7033,-0.004761
3833.5670,-0.004501
3835.4306,-0.004489
3837.2943,-0.003119
3839.1580,-0.001873
3841.0216,-0.001104
3842.8853,-0.002386
3844.7490,-0.002924
3846.6126,-0.003337
3848.4763,-0.004674
3850.3400,-0.005522
3852.2037,-0.005196
3854.0673,-0.002027
3855.9310,0.001923
3857.7947,-0.000724
3859.6583,-0.002902
3861.5220,-0.004183
3863.3857,-0.003570
3865.2493,-0.003539
3867.1130,-0.001985
3868.9767,-0.002224
3870.8403,-0.000630
3872.7040,-0.000939
3874.5677,-0.002516
3876.4314,-0.001971
3878.2950,-0.003764
3880.1587,-0.004939
3882.0224,-0.003916
3883.8860,-0.002891
3885.7497,-0.003154
3887.6134,-0.002544
3889.4770,-0.003254
3891.3407,-0.003507
3893.2044,-0.002506
3895.0680,-0.003347
3896.9317,-0.004780
3898.7954,-0.005019
3900.6590,-0.003133
3902.5227,-0.001601
3904.3864,-0.001332
3906.2501,-0.001633
3908.1137,-0.002842
3909.9774,-0.003705
3911.8411,-0.004787
3913.7047,-0.004999
3915.5684,-0.004688
3917.4321,-0.003902
3919.2957,-0.003801
3921.1594,-0.003707
3923.0231,-0.003293
3924.8867,-0.003423
3926.7504,-0.003400
3928.6141,-0.004385
3930.4777,-0.004245
3932.3414,-0.004067
3934.2051,-0.003862
3936.0688,-0.003964
3937.9324,-0.004321
3939.7961,-0.004281
3941.6598,-0.004528
3943.5234,-0.005049
3945.3871,-0.004765
3947.2508,-0.004624
3949.1144,-0.004662
3950.9781,-0.004237
3952.8418,-0.004064
3954.7054,-0.004738
3956.5691,-0.004512
3958.4328,-0.003633
3960.2965,-0.004357
3962.1601,-0.005210
3964.0238,-0.004695
3965.8875,-0.004592
3967.7511,-0.004501
3969.6148,-0.004474
3971.4785,-0.004982
3973.3421,-0.004824
3975.2058,-0.003923
3977.0695,-0.003925
3978.9331,-0.004660
3980.7968,-0.005177
3982.6605,-0.005154
3984.5241,-0.005238
3986.3878,-0.005194
3988.2515,-0.005028
3990.1152,-0.004956
3991.9788,-0.004985
3993.8425,-0.004923
3995.7062,-0.005013
3997.5698,-0.005113
3999.4335,-0.004140
4001.2972,-0.003765
4003.1608,-0.004657
4005.0245,-0.005206
4006.8882,-0.005076
4008.7518,-0.005069
4010.6155,-0.004654
4012.4792,-0.004719
4014.3429,-0.005388
4016.2065,-0.005386
4018.0702,-0.005353
4019.9339,-0.005193
4021.7975,-0.005215
4023.6612,-0.005812
4025.5249,-0.005946
4027.3885,-0.005973
4029.2522,-0.005546
4031.1159,-0.004898
4032.9795,-0.004480
4034.8432,-0.004427
4036.7069,-0.004642
4038.5705,-0.004524
4040.4342,-0.004281
4042.2979,-0.004547
4044.1616,-0.003966
4046.0252,-0.004476
4047.8889,-0.005797
4049.7526,-0.005582
4051.6162,-0.004829
4053.4799,-0.004651
4055.3436,-0.004686
4057.2072,-0.004786
4059.0709,-0.005074
4060.9346,-0.005580
4062.7982,-0.005844
4064.6619,-0.006225
4066.5256,-0.005951
4068.3892,-0.005247
4070.2529,-0.004852
4072.1166,-0.004737
4073.9803,-0.004880
4075.8439,-0.005323
4077.7076,-0.005024
4079.5713,-0.004835
4081.4349,-0.005115
4083.2986,-0.005740
4085.1623,-0.006188
4087.0259,-0.005811
4088.8896,-0.005012
4090.7533,-0.004641
4092.6169,-0.004738
4094.4806,-0.004860
4096.3443,-0.004636
4098.2080,-0.005508
4100.0716,-0.005639
