Wavenumber,Intensity
600.1014,0.232284
601.9651,0.208043
603.8287,0.201261
605.6924,0.217565
607.5561,0.220861
609.4197,0.211011
611.2834,0.213123
613.1471,0.216087
615.0107,0.213604
616.8744,0.215569
618.7381,0.211554
620.6017,0.202326
622.4654,0.199125
624.3291,0.209437
626.1928,0.220930
628.0564,0.221242
629.9201,0.222345
631.7838,0.220621
633.6474,0.218758
635.5111,0.218808
637.3748,0.216252
639.2384,0.215239
641.1021,0.218978
642.9658,0.223167
644.8294,0.222815
646.6931,0.223379
648.5568,0.224629
650.4205,0.223594
652.2841,0.221438
654.1478,0.217711
656.0115,0.215859
657.8751,0.215516
659.7388,0.216278
661.6025,0.216392
663.4661,0.214610
665.3298,0.215677
667.1935,0.216681
669.0571,0.214193
670.9208,0.214572
672.7845,0.215235
674.6481,0.213440
676.5118,0.211321
678.3755,0.208108
680.2392,0.205249
682.1028,0.203123
683.9665,0.199805
685.8302,0.194566
687.6938,0.190564
689.5575,0.187532
691.4212,0.183217
693.2848,0.179186
695.1485,0.176289
697.0122,0.173211
698.8758,0.171226
700.7395,0.171004
702.6032,0.170616
704.4669,0.170917
706.3305,0.173066
708.1942,0.174954
710.0579,0.176205
711.9215,0.177791
713.7852,0.179687
715.6489,0.181671
717.5125,0.184119
719.3762,0.186786
721.2399,0.188093
723.1035,0.188313
724.9672,0.188246
726.8309,0.188084
728.6945,0.187233
730.5582,0.185579
732.4219,0.184079
734.2856,0.183233
736.1492,0.182906
738.0129,0.182393
739.8766,0.181433
741.7402,0.180548
743.6039,0.179456
745.4676,0.178092
747.3312,0.177319
749.1949,0.176476
751.0586,0.175875
752.9222,0.175440
754.7859,0.175676
756.6496,0.175946
758.5132,0.175315
760.3769,0.174557
762.2406,0.173626
764.1043,0.171967
765.9679,0.170206
767.8316,0.168425
769.6953,0.166429
771.5589,0.164569
773.4226,0.162986
775.2863,0.161613
777.1499,0.160757
779.0136,0.159838
780.8773,0.158888
782.7409,0.158281
784.6046,0.158207
786.4683,0.158455
788.3320,0.159227
790.1956,0.159458
792.0593,0.158920
793.9230,0.158682
795.7866,0.158864
797.6503,0.159319
799.5140,0.159866
801.3776,0.160632
803.2413,0.161841
805.1050,0.163290
806.9686,0.164629
808.8323,0.165951
810.6960,0.167206
812.5596,0.168617
814.4233,0.170393
816.2870,0.171481
818.1507,0.172039
820.0143,0.172081
821.8780,0.171528
823.7417,0.170998
825.6053,0.170747
827.4690,0.170976
829.3327,0.171730
831.1963,0.173193
833.0600,0.175746
834.9237,0.178763
836.7873,0.182251
838.6510,0.186268
840.5147,0.190576
842.3784,0.195056
844.2420,0.200020
846.1057,0.205391
847.9694,0.211143
849.8330,0.216759
851.6967,0.222625
853.5604,0.228508
855.4240,0.234562
857.2877,0.240587
859.1514,0.246568
861.0150,0.252339
862.8787,0.257905
864.7424,0.263256
866.6060,0.268506
868.4697,0.273645
870.3334,0.278701
872.1971,0.283585
874.0607,0.288257
875.9244,0.292456
877.7881,0.296700
879.6517,0.301117
881.5154,0.305745
883.3791,0.310764
885.2427,0.316239
887.1064,0.322146
888.9701,0.328846
890.8337,0.335837
892.6974,0.342689
894.5611,0.349337
896.4247,0.356113
898.2884,0.363081
900.1521,0.370266
902.0158,0.377324
903.8794,0.384428
905.7431,0.390773
907.6068,0.396444
909.4704,0.401595
911.3341,0.406458
913.1978,0.411146
915.0614,0.415617
916.9251,0.419732
918.7888,0.424287
920.6524,0.428748
922.5161,0.433061
924.3798,0.437217
926.2435,0.441767
928.1071,0.446203
929.9708,0.450414
931.8345,0.454667
933.6981,0.459077
935.5618,0.463629
937.4255,0.468290
939.2891,0.472336
941.1528,0.476266
943.0165,0.479258
944.8801,0.481184
946.7438,0.482537
948.6075,0.483067
950.4711,0.482031
952.3348,0.479949
954.1985,0.476930
956.0622,0.472845
957.9258,0.467650
959.7895,0.462672
961.6532,0.457643
963.5168,0.452826
965.3805,0.448350
967.2442,0.444282
969.1078,0.440674
970.9715,0.437958
972.8352,0.435682
974.6988,0.433813
976.5625,0.431759
978.4262,0.429654
980.2899,0.427408
982.1535,0.424750
984.0172,0.421259
985.8809,0.416891
987.7445,0.411609
989.6082,0.405545
991.4719,0.398549
993.3355,0.390717
995.1992,0.382019
997.0629,0.372834
998.9265,0.363220
1000.7902,0.353446
1002.6539,0.343487
1004.5175,0.333395
1006.3812,0.323181
1008.2449,0.313162
1010.1086,0.302923
1011.9722,0.292755
1013.8359,0.282862
1015.6996,0.273067
1017.5632,0.263300
1019.4269,0.253987
1021.2906,0.245239
1023.1542,0.237089
1025.0179,0.229182
1026.8816,0.221683
1028.7452,0.214647
1030.6089,0.207902
1032.4726,0.201320
1034.3362,0.195233
1036.1999,0.189476
1038.0636,0.184192
1039.9273,0.179169
1041.7909,0.174447
1043.6546,0.170274
1045.5183,0.166442
1047.3819,0.162899
1049.2456,0.159658
1051.1093,0.156705
1052.9729,0.153930
1054.8366,0.151138
1056.7003,0.148510
1058.5639,0.146055
1060.4276,0.143741
1062.2913,0.141443
1064.1550,0.139188
1066.0186,0.136788
1067.8823,0.134337
1069.7460,0.131905
1071.6096,0.129504
1073.4733,0.127036
1075.3370,0.124501
1077.2006,0.121818
1079.0643,0.119128
1080.9280,0.116491
1082.7916,0.113864
1084.6553,0.111152
1086.5190,0.108366
1088.3826,0.105622
1090.2463,0.103052
1092.1100,0.100329
1093.9737,0.097458
1095.8373,0.094704
1097.7010,0.092103
1099.5647,0.089525
1101.4283,0.086901
1103.2920,0.084270
1105.1557,0.081836
1107.0193,0.079356
1108.8830,0.076855
1110.7467,0.074464
1112.6103,0.072130
1114.4740,0.069858
1116.3377,0.067643
1118.2014,0.065496
1120.0650,0.063483
1121.9287,0.061634
1123.7924,0.059879
1125.6560,0.058218
1127.5197,0.056679
1129.3834,0.055255
1131.2470,0.054006
1133.1107,0.052855
1134.9744,0.051872
1136.8380,0.050949
1138.7017,0.050022
1140.5654,0.049165
1142.4290,0.048344
1144.2927,0.047619
1146.1564,0.046983
1148.0201,0.046227
1149.8837,0.045436
1151.7474,0.044725
1153.6111,0.043986
1155.4747,0.043166
1157.3384,0.042302
1159.2021,0.041365
1161.0657,0.040448
1162.9294,0.039509
1164.7931,0.038501
1166.6567,0.037370
1168.5204,0.036249
1170.3841,0.035239
1172.2477,0.034205
1174.1114,0.033134
1175.9751,0.032053
1177.8388,0.030954
1179.7024,0.029864
1181.5661,0.028838
1183.4298,0.027901
1185.2934,0.026918
1187.1571,0.025882
1189.0208,0.024904
1190.8844,0.023994
1192.7481,0.023092
1194.6118,0.022173
1196.4754,0.021283
1198.3391,0.020539
1200.2028,0.019791
1202.0665,0.019084
1203.9301,0.018369
1205.7938,0.017618
1207.6575,0.016996
1209.5211,0.016414
1211.3848,0.015948
1213.2485,0.015479
1215.1121,0.014950
1216.9758,0.014606
1218.8395,0.014366
1220.7031,0.014075
1222.5668,0.013746
1224.4305,0.013476
1226.2941,0.013227
1228.1578,0.013040
1230.0215,0.012903
1231.8852,0.012760
1233.7488,0.012657
1235.6125,0.012565
1237.4762,0.012341
1239.3398,0.012160
1241.2035,0.012091
1243.0672,0.011995
1244.9308,0.011813
1246.7945,0.011650
1248.6582,0.011593
1250.5218,0.011525
1252.3855,0.011400
1254.2492,0.011312
1256.1129,0.011324
1257.9765,0.011334
1259.8402,0.011317
1261.7039,0.011181
1263.5675,0.011158
1265.4312,0.011161
1267.2949,0.011136
1269.1585,0.011134
1271.0222,0.011167
1272.8859,0.011114
1274.7495,0.011005
1276.6132,0.010921
1278.4769,0.010933
1280.3405,0.011040
1282.2042,0.011012
1284.0679,0.010968
1285.9316,0.011036
1287.7952,0.011173
1289.6589,0.011175
1291.5226,0.011156
1293.3862,0.011101
1295.2499,0.011064
1297.1136,0.011092
1298.9772,0.011048
1300.8409,0.011025
1302.7046,0.011092
1304.5682,0.011156
1306.4319,0.011197
1308.2956,0.011314
1310.1592,0.011275
1312.0229,0.011494
1313.8866,0.011808
1315.7503,0.011853
1317.6139,0.011947
1319.4776,0.012034
1321.3413,0.011818
1323.2049,0.011578
1325.0686,0.011560
1326.9323,0.011597
1328.7959,0.011702
1330.6596,0.011759
1332.5233,0.011749
1334.3869,0.011876
1336.2506,0.012281
1338.1143,0.013067
1339.9780,0.013749
1341.8416,0.012914
1343.7053,0.012241
1345.5690,0.012187
1347.4326,0.012323
1349.2963,0.012432
1351.1600,0.012436
1353.0236,0.012520
1354.8873,0.012693
1356.7510,0.012812
1358.6146,0.012907
1360.4783,0.013323
1362.3420,0.014850
1364.2056,0.014862
1366.0693,0.013725
1367.9330,0.013774
1369.7967,0.013890
1371.6603,0.013759
1373.5240,0.014328
1375.3877,0.014442
1377.2513,0.014276
1379.1150,0.014501
1380.9787,0.014372
1382.8423,0.014475
1384.7060,0.014384
1386.5697,0.015694
1388.4333,0.016287
1390.2970,0.015532
1392.1607,0.015217
1394.0244,0.016612
1395.8880,0.017281
1397.7517,0.017280
1399.6154,0.017350
1401.4790,0.016071
1403.3427,0.016332
1405.2064,0.016957
1407.0700,0.016730
1408.9337,0.016392
1410.7974,0.016713
1412.6610,0.016719
1414.5247,0.017010
1416.3884,0.017414
1418.2520,0.018872
1420.1157,0.018804
1421.9794,0.017603
1423.8431,0.018024
1425.7067,0.017362
1427.5704,0.016985
1429.4341,0.017485
1431.2977,0.017960
1433.1614,0.017445
1435.0251,0.017645
1436.8887,0.019209
1438.7524,0.017768
1440.6161,0.017047
1442.4797,0.016670
1444.3434,0.016724
1446.2071,0.017021
1448.0707,0.017547
1449.9344,0.016907
1451.7981,0.017079
1453.6618,0.016858
1455.5254,0.018208
1457.3891,0.021056
1459.2528,0.019630
1461.1164,0.017055
1462.9801,0.016016
1464.8438,0.016759
1466.7074,0.016344
1468.5711,0.015816
1470.4348,0.016043
1472.2984,0.018606
1474.1621,0.018133
1476.0258,0.017387
1477.8895,0.015949
1479.7531,0.015275
1481.6168,0.015378
1483.4805,0.014866
1485.3441,0.015019
1487.2078,0.016053
1489.0715,0.017254
1490.9351,0.017297
1492.7988,0.015171
1494.6625,0.014764
1496.5261,0.015897
1498.3898,0.016236
1500.2535,0.015807
1502.1171,0.014806
1503.9808,0.014133
1505.8445,0.017418
1507.7082,0.021355
1509.5718,0.018674
1511.4355,0.016341
1513.2992,0.014824
1515.1628,0.015415
1517.0265,0.016807
1518.8902,0.015524
1520.7538,0.017335
1522.6175,0.017760
1524.4812,0.016502
1526.3448,0.015974
1528.2085,0.015442
1530.0722,0.014554
1531.9359,0.014026
1533.7995,0.015472
1535.6632,0.014581
1537.5269,0.014437
1539.3905,0.016564
1541.2542,0.018173
1543.1179,0.017484
1544.9815,0.016449
1546.8452,0.013793
1548.7089,0.014065
1550.5725,0.014794
1552.4362,0.014204
1554.2999,0.014992
1556.1635,0.014176
1558.0272,0.017028
1559.8909,0.019586
1561.7546,0.015614
1563.6182,0.013866
1565.4819,0.013301
1567.3456,0.013012
1569.2092,0.014607
1571.0729,0.014857
1572.9366,0.013702
1574.8002,0.014077
1576.6639,0.015882
1578.5276,0.014767
1580.3912,0.014168
1582.2549,0.014040
1584.1186,0.014327
1585.9822,0.014365
1587.8459,0.014620
1589.7096,0.014933
1591.5733,0.015226
1593.4369,0.015593
1595.3006,0.015966
1597.1643,0.016092
1599.0279,0.016085
1600.8916,0.016415
1602.7553,0.017083
1604.6189,0.017562
1606.4826,0.018037
1608.3463,0.018722
1610.2099,0.018997
1612.0736,0.019442
1613.9373,0.019703
1615.8010,0.021724
1617.6646,0.022913
1619.5283,0.022616
1621.3920,0.023103
1623.2556,0.024429
1625.1193,0.024447
1626.9830,0.025008
1628.8466,0.025649
1630.7103,0.025911
1632.5740,0.025912
1634.4376,0.027687
1636.3013,0.029742
1638.1650,0.028648
1640.0286,0.027829
1641.8923,0.027297
1643.7560,0.027481
1645.6197,0.029000
1647.4833,0.030681
1649.3470,0.028907
1651.2107,0.028447
1653.0743,0.031959
1654.9380,0.030027
1656.8017,0.027408
1658.6653,0.026078
1660.5290,0.025739
1662.3927,0.026152
1664.2563,0.025304
1666.1200,0.024579
1667.9837,0.025073
1669.8474,0.026255
1671.7110,0.025066
1673.5747,0.023817
1675.4384,0.024088
1677.3020,0.022674
1679.1657,0.022364
1681.0294,0.021468
1682.8930,0.022525
1684.7567,0.024622
1686.6204,0.021919
1688.4840,0.020666
1690.3477,0.019607
1692.2114,0.018529
1694.0750,0.018020
1695.9387,0.019708
1697.8024,0.018616
1699.6661,0.020347
1701.5297,0.018426
1703.3934,0.017152
1705.2571,0.017079
1707.1207,0.016252
1708.9844,0.015147
1710.8481,0.014058
1712.7117,0.013886
1714.5754,0.014829
1716.4391,0.016292
1718.3027,0.017173
1720.1664,0.014256
1722.0301,0.013010
1723.8937,0.012384
1725.7574,0.011955
1727.6211,0.011689
1729.4848,0.012436
1731.3484,0.012450
1733.2121,0.014175
1735.0758,0.014646
1736.9394,0.012563
1738.8031,0.012212
1740.6668,0.011906
1742.5304,0.012591
1744.3941,0.012333
1746.2578,0.012044
1748.1214,0.012277
1749.9851,0.012562
1751.8488,0.012927
1753.7125,0.011518
1755.5761,0.011106
1757.4398,0.010974
1759.3035,0.010788
1761.1671,0.011626
1763.0308,0.011787
1764.8945,0.010839
1766.7581,0.010840
1768.6218,0.010972
1770.4855,0.011260
1772.3491,0.013170
1774.2128,0.012488
1776.0765,0.011284
1777.9401,0.010201
1779.8038,0.010737
1781.6675,0.010844
1783.5312,0.010965
1785.3948,0.011080
1787.2585,0.010519
1789.1222,0.010143
1790.9858,0.011099
1792.8495,0.011938
1794.7132,0.011526
1796.5768,0.010956
1798.4405,0.010590
1800.3042,0.011269
1802.1678,0.011442
1804.0315,0.010775
1805.8952,0.010070
1807.7589,0.010145
1809.6225,0.010701
1811.4862,0.010933
1813.3499,0.010457
1815.2135,0.010044
1817.0772,0.010005
1818.9409,0.010172
1820.8045,0.010169
1822.6682,0.010157
1824.5319,0.010853
1826.3955,0.010842
1828.2592,0.010704
1830.1229,0.011276
1831.9865,0.010798
1833.8502,0.010221
1835.7139,0.009843
1837.5776,0.010096
1839.4412,0.009890
1841.3049,0.009653
1843.1686,0.010463
1845.0322,0.011777
1846.8959,0.011542
1848.7596,0.010812
1850.6232,0.009964
1852.4869,0.009957
1854.3506,0.009551
1856.2142,0.009626
1858.0779,0.009760
1859.9416,0.010118
1861.8052,0.009977
1863.6689,0.009930
1865.5326,0.009949
1867.3963,0.010892
1869.2599,0.011690
1871.1236,0.011064
1872.9873,0.010144
1874.8509,0.010114
1876.7146,0.010057
1878.5783,0.009829
1880.4419,0.009872
1882.3056,0.010060
1884.1693,0.009814
1886.0329,0.009835
1887.8966,0.010144
1889.7603,0.010658
1891.6240,0.010157
1893.4876,0.009770
1895.3513,0.009661
1897.2150,0.009916
1899.0786,0.009858
1900.9423,0.009757
1902.8060,0.009460
1904.6696,0.009547
1906.5333,0.009832
1908.3970,0.010330
1910.2606,0.010391
1912.1243,0.009942
1913.9880,0.009465
1915.8516,0.009497
1917.7153,0.010275
1919.5790,0.010812
1921.4427,0.010398
1923.3063,0.010073
1925.1700,0.010073
1927.0337,0.010087
1928.8973,0.009700
1930.7610,0.009799
1932.6247,0.009670
1934.4883,0.009409
1936.3520,0.008928
1938.2157,0.008896
1940.0793,0.009207
1941.9430,0.010146
1943.8067,0.010027
1945.6704,0.009921
1947.5340,0.009724
1949.3977,0.009769
1951.2614,0.009419
1953.1250,0.009219
1954.9887,0.009062
1956.8524,0.008814
1958.7160,0.008516
1960.5797,0.008775
1962.4434,0.008849
1964.3070,0.008787
1966.1707,0.008997
1968.0344,0.009911
1969.8980,0.009594
1971.7617,0.008686
1973.6254,0.008304
1975.4891,0.008545
1977.3527,0.008385
1979.2164,0.009065
1981.0801,0.009394
1982.9437,0.009844
1984.8074,0.009987
1986.6711,0.010080
1988.5347,0.010274
1990.3984,0.010682
1992.2621,0.010587
1994.1257,0.010326
1995.9894,0.009952
1997.8531,0.009726
1999.7167,0.009305
2001.5804,0.009274
2003.4441,0.009603
2005.3078,0.009882
2007.1714,0.009296
2009.0351,0.009140
2010.8988,0.009422
2012.7624,0.009584
2014.6261,0.009617
2016.4898,0.009775
2018.3534,0.009438
2020.2171,0.009622
2022.0808,0.009490
2023.9444,0.009245
2025.8081,0.009198
2027.6718,0.009230
2029.5355,0.009217
2031.3991,0.009306
2033.2628,0.009321
2035.1265,0.009381
2036.9901,0.009176
2038.8538,0.009535
2040.7175,0.010106
2042.5811,0.010386
2044.4448,0.010042
2046.3085,0.009965
2048.1721,0.009756
2050.0358,0.009807
2051.8995,0.009767
2053.7631,0.009719
2055.6268,0.009652
2057.4905,0.010023
2059.3542,0.010175
2061.2178,0.009968
2063.0815,0.009598
2064.9452,0.009776
2066.8088,0.009906
2068.6725,0.010102
2070.5362,0.010086
2072.3998,0.010239
2074.2635,0.010312
2076.1272,0.010301
2077.9908,0.010172
2079.8545,0.010071
2081.7182,0.010317
2083.5819,0.010654
2085.4455,0.010349
2087.3092,0.010174
2089.1729,0.010332
2091.0365,0.010668
2092.9002,0.010343
2094.7639,0.009965
2096.6275,0.010222
2098.4912,0.010484
2100.3549,0.010241
2102.2185,0.010240
2104.0822,0.010233
2105.9459,0.010406
2107.8095,0.010413
2109.6732,0.010530
2111.5369,0.010607
2113.4006,0.010555
2115.2642,0.010466
2117.1279,0.010194
2118.9916,0.009582
2120.8552,0.009442
2122.7189,0.009745
2124.5826,0.009822
2126.4462,0.009434
2128.3099,0.009335
2130.1736,0.009206
2132.0372,0.009247
2133.9009,0.009361
2135.7646,0.009280
2137.6282,0.009272
2139.4919,0.009453
2141.3556,0.009118
2143.2193,0.008887
2145.0829,0.008704
2146.9466,0.008520
2148.8103,0.008403
2150.6739,0.008769
2152.5376,0.008874
2154.4013,0.008740
2156.2649,0.007957
2158.1286,0.007563
2159.9923,0.008546
2161.8559,0.009680
2163.7196,0.009900
2165.5833,0.010133
2167.4470,0.009794
2169.3106,0.009580
2171.1743,0.009559
2173.0380,0.009340
2174.9016,0.009652
2176.7653,0.010374
2178.6290,0.010066
2180.4926,0.009640
2182.3563,0.009414
2184.2200,0.010093
2186.0836,0.010998
2187.9473,0.010975
2189.8110,0.010180
2191.6746,0.009937
2193.5383,0.009815
2195.4020,0.009822
2197.2657,0.009843
2199.1293,0.010029
2200.9930,0.010111
2202.8567,0.010439
2204.7203,0.010633
2206.5840,0.010842
2208.4477,0.010750
2210.3113,0.010731
2212.1750,0.010998
2214.0387,0.010612
2215.9023,0.010463
2217.7660,0.011239
2219.6297,0.011277
2221.4934,0.010667
2223.3570,0.010702
2225.2207,0.011195
2227.0844,0.011073
2228.9480,0.011297
2230.8117,0.011345
2232.6754,0.011228
2234.5390,0.011168
2236.4027,0.011101
2238.2664,0.010791
2240.1300,0.010722
2241.9937,0.010964
2243.8574,0.011059
2245.7210,0.011054
2247.5847,0.011118
2249.4484,0.011027
2251.3121,0.011262
2253.1757,0.011328
2255.0394,0.010951
2256.9031,0.010571
2258.7667,0.010917
2260.6304,0.011270
2262.4941,0.011437
2264.3577,0.011734
2266.2214,0.011863
2268.0851,0.011684
2269.9487,0.011716
2271.8124,0.011617
2273.6761,0.011378
2275.5397,0.011099
2277.4034,0.011139
2279.2671,0.011515
2281.1308,0.012108
2282.9944,0.012219
2284.8581,0.011900
2286.7218,0.011849
2288.5854,0.011951
2290.4491,0.012017
2292.3128,0.012230
2294.1764,0.012222
2296.0401,0.012080
2297.9038,0.011877
2299.7674,0.011891
2301.6311,0.012240
2303.4948,0.012599
2305.3585,0.012550
2307.2221,0.012792
2309.0858,0.012893
2310.9495,0.012836
2312.8131,0.012876
2314.6768,0.012555
2316.5405,0.012452
2318.4041,0.012701
2320.2678,0.012941
2322.1315,0.013702
2323.9951,0.014350
2325.8588,0.014367
2327.7225,0.013734
2329.5861,0.013014
2331.4498,0.013057
2333.3135,0.013206
2335.1772,0.012957
2337.0408,0.013054
2338.9045,0.013410
2340.7682,0.013733
2342.6318,0.014119
2344.4955,0.013741
2346.3592,0.013537
2348.2228,0.013034
2350.0865,0.012353
2351.9502,0.012538
2353.8138,0.012375
2355.6775,0.012121
2357.5412,0.012970
2359.4049,0.014273
2361.2685,0.015106
2363.1322,0.015496
2364.9959,0.014730
2366.8595,0.013706
2368.7232,0.013083
2370.5869,0.013297
2372.4505,0.013629
2374.3142,0.013420
2376.1779,0.012929
2378.0415,0.012702
2379.9052,0.012200
2381.7689,0.011792
2383.6325,0.011627
2385.4962,0.011472
2387.3599,0.011508
2389.2236,0.011568
2391.0872,0.011521
2392.9509,0.011476
2394.8146,0.011098
2396.6782,0.010848
2398.5419,0.010953
2400.4056,0.011168
2402.2692,0.011086
2404.1329,0.011208
2405.9966,0.011276
2407.8602,0.011278
2409.7239,0.011458
2411.5876,0.011633
2413.4512,0.011397
2415.3149,0.011098
2417.1786,0.011066
2419.0423,0.011448
2420.9059,0.011503
2422.7696,0.011437
2424.6333,0.011608
2426.4969,0.011794
2428.3606,0.011658
2430.2243,0.011374
2432.0879,0.011340
2433.9516,0.011711
2435.8153,0.011683
2437.6789,0.011525
2439.5426,0.011475
2441.4063,0.011359
2443.2700,0.011469
2445.1336,0.011845
2446.9973,0.012001
2448.8610,0.011962
2450.7246,0.011859
2452.5883,0.011973
2454.4520,0.012017
2456.3156,0.011917
2458.1793,0.011809
2460.0430,0.011719
2461.9066,0.011614
2463.7703,0.011573
2465.6340,0.011346
2467.4976,0.011234
2469.3613,0.011370
2471.2250,0.011674
2473.0887,0.011669
2474.9523,0.011359
2476.8160,0.011199
2478.6797,0.011389
2480.5433,0.011801
2482.4070,0.012023
2484.2707,0.011855
2486.1343,0.011775
2487.9980,0.011813
2489.8617,0.011559
2491.7253,0.011509
2493.5890,0.011700
2495.4527,0.011309
2497.3164,0.011241
2499.1800,0.011400
2501.0437,0.011334
2502.9074,0.011628
2504.7710,0.012154
2506.6347,0.012298
2508.4984,0.012041
2510.3620,0.011637
2512.2257,0.011796
2514.0894,0.011802
2515.9530,0.011492
2517.8167,0.011602
2519.6804,0.011833
2521.5440,0.011886
2523.4077,0.011859
2525.2714,0.012014
2527.1351,0.012543
2528.9987,0.012469
2530.8624,0.011761
2532.7261,0.011305
2534.5897,0.011616
2536.4534,0.011938
2538.3171,0.011801
2540.1807,0.011589
2542.0444,0.012001
2543.9081,0.012203
2545.7717,0.011979
2547.6354,0.011899
2549.4991,0.012133
2551.3627,0.011910
2553.2264,0.011664
2555.0901,0.011951
2556.9538,0.011967
2558.8174,0.011923
2560.6811,0.012093
2562.5448,0.011711
2564.4084,0.011438
2566.2721,0.011477
2568.1358,0.011668
2569.9994,0.011926
2571.8631,0.012044
2573.7268,0.012210
2575.5904,0.011996
2577.4541,0.011594
2579.3178,0.011813
2581.1815,0.012115
2583.0451,0.012164
2584.9088,0.012120
2586.7725,0.012108
2588.6361,0.012136
2590.4998,0.011981
2592.3635,0.012057
2594.2271,0.012567
2596.0908,0.012492
2597.9545,0.011967
2599.8181,0.011773
2601.6818,0.011972
2603.5455,0.012107
2605.4091,0.012234
2607.2728,0.012175
2609.1365,0.012164
2611.0002,0.012233
2612.8638,0.012193
2614.7275,0.012183
2616.5912,0.012268
2618.4548,0.012332
2620.3185,0.012276
2622.1822,0.012026
2624.0458,0.012140
2625.9095,0.012409
2627.7732,0.012500
2629.6368,0.012403
2631.5005,0.012481
2633.3642,0.012599
2635.2279,0.012447
2637.0915,0.012408
2638.9552,0.012397
2640.8189,0.012256
2642.6825,0.011962
2644.5462,0.011799
2646.4099,0.012003
2648.2735,0.012260
2650.1372,0.012502
2652.0009,0.012779
2653.8645,0.012839
2655.7282,0.012537
2657.5919,0.012479
2659.4555,0.012570
2661.3192,0.012409
2663.1829,0.012316
2665.0466,0.012478
2666.9102,0.012385
2668.7739,0.012062
2670.6376,0.011952
2672.5012,0.012091
2674.3649,0.012189
2676.2286,0.012136
2678.0922,0.012086
2679.9559,0.012109
2681.8196,0.012032
2683.6832,0.011994
2685.5469,0.012086
2687.4106,0.012295
2689.2742,0.012447
2691.1379,0.012516
2693.0016,0.012403
2694.8653,0.012391
2696.7289,0.012581
2698.5926,0.012595
2700.4563,0.012437
2702.3199,0.012390
2704.1836,0.012323
2706.0473,0.012438
2707.9109,0.012625
2709.7746,0.012544
2711.6383,0.012482
2713.5019,0.012443
2715.3656,0.012458
2717.2293,0.012493
2719.0930,0.012600
2720.9566,0.012637
2722.8203,0.012505
2724.6840,0.012472
2726.5476,0.012397
2728.4113,0.012588
2730.2750,0.012807
2732.1386,0.012711
2734.0023,0.012667
2735.8660,0.012629
2737.7296,0.012598
2739.5933,0.012717
2741.4570,0.012731
2743.3206,0.012777
2745.1843,0.012944
2747.0480,0.012894
2748.9117,0.012871
2750.7753,0.012972
2752.6390,0.012846
2754.5027,0.012745
2756.3663,0.012682
2758.2300,0.012796
2760.0937,0.013070
2761.9573,0.012915
2763.8210,0.012698
2765.6847,0.012804
2767.5483,0.012865
2769.4120,0.013125
2771.2757,0.013241
2773.1394,0.013147
2775.0030,0.013003
2776.8667,0.012931
2778.7304,0.013118
2780.5940,0.013353
2782.4577,0.013330
2784.3214,0.013366
2786.1850,0.013521
2788.0487,0.013252
2789.9124,0.012948
2791.7760,0.013229
2793.6397,0.013581
2795.5034,0.013806
2797.3670,0.013517
2799.2307,0.013281
2801.0944,0.013219
2802.9581,0.013332
2804.8217,0.013912
2806.6854,0.014000
2808.5491,0.013633
2810.4127,0.013523
2812.2764,0.013735
2814.1401,0.013698
2816.0037,0.013300
2817.8674,0.013496
2819.7311,0.013921
2821.5947,0.014006
2823.4584,0.014110
2825.3221,0.013873
2827.1857,0.013445
2829.0494,0.013447
2830.9131,0.013746
2832.7768,0.014098
2834.6404,0.014138
2836.5041,0.014090
2838.3678,0.013856
2840.2314,0.013759
2842.0951,0.013846
2843.9588,0.013781
2845.8224,0.013692
2847.6861,0.014050
2849.5498,0.014327
2851.4134,0.014445
2853.2771,0.014636
2855.1408,0.014705
2857.0045,0.014650
2858.8681,0.014511
2860.7318,0.014309
2862.5955,0.014350
2864.4591,0.014463
2866.3228,0.014831
2868.1865,0.014937
2870.0501,0.015045
2871.9138,0.015246
2873.7775,0.015256
2875.6411,0.014816
2877.5048,0.014398
2879.3685,0.014603
2881.2321,0.015054
2883.0958,0.015220
2884.9595,0.015071
2886.8232,0.014713
2888.6868,0.014724
2890.5505,0.015209
2892.4142,0.015531
2894.2778,0.015634
2896.1415,0.015506
2898.0052,0.015449
2899.8688,0.015567
2901.7325,0.015371
2903.5962,0.015168
2905.4598,0.015425
2907.3235,0.015585
2909.1872,0.015234
2911.0509,0.015109
2912.9145,0.015494
2914.7782,0.015935
2916.6419,0.016214
2918.5055,0.016005
2920.3692,0.015941
2922.2329,0.016279
2924.0965,0.016285
2925.9602,0.016094
2927.8239,0.015942
2929.6875,0.016177
2931.5512,0.016313
2933.4149,0.016267
2935.2785,0.016147
2937.1422,0.016187
2939.0059,0.016423
2940.8696,0.016830
2942.7332,0.016886
2944.5969,0.016831
2946.4606,0.016987
2948.3242,0.016628
2950.1879,0.016387
2952.0516,0.016403
2953.9152,0.016557
2955.7789,0.016715
2957.6426,0.016910
2959.5062,0.016872
2961.3699,0.017004
2963.2336,0.017242
2965.0972,0.017184
2966.9609,0.017226
2968.8246,0.017231
2970.6883,0.017389
2972.5519,0.017528
2974.4156,0.017741
2976.2793,0.017820
2978.1429,0.017875
2980.0066,0.018032
2981.8703,0.017838
2983.7339,0.017705
2985.5976,0.017710
2987.4613,0.017653
2989.3249,0.017786
2991.1886,0.017904
2993.0523,0.017913
2994.9160,0.018059
2996.7796,0.018668
2998.6433,0.019167
3000.5070,0.019275
3002.3706,0.019339
3004.2343,0.019612
3006.0980,0.019603
3007.9616,0.019148
3009.8253,0.019048
3011.6890,0.019272
3013.5526,0.019076
3015.4163,0.018868
3017.2800,0.018614
3019.1436,0.018889
3021.0073,0.019680
3022.8710,0.019914
3024.7347,0.020032
3026.5983,0.020118
3028.4620,0.019989
3030.3257,0.020179
3032.1893,0.020080
3034.0530,0.020504
3035.9167,0.020921
3037.7803,0.020761
3039.6440,0.020575
3041.5077,0.020461
3043.3713,0.020699
3045.2350,0.020930
3047.0987,0.021029
3048.9624,0.021288
3050.8260,0.021583
3052.6897,0.021830
3054.5534,0.021711
3056.4170,0.021315
3058.2807,0.021391
3060.1444,0.021715
3062.0080,0.021789
3063.8717,0.021940
3065.7354,0.022326
3067.5990,0.022705
3069.4627,0.023057
3071.3264,0.023230
3073.1900,0.023057
3075.0537,0.022602
3076.9174,0.022884
3078.7811,0.023315
3080.6447,0.023347
3082.5084,0.023344
3084.3721,0.023307
3086.2357,0.023477
3088.0994,0.023623
3089.9631,0.023891
3091.8267,0.024250
3093.6904,0.024157
3095.5541,0.023605
3097.4177,0.024236
3099.2814,0.025005
3101.1451,0.025174
3103.0087,0.025159
3104.8724,0.025308
3106.7361,0.025307
3108.5998,0.025331
3110.4634,0.025407
3112.3271,0.025641
3114.1908,0.026209
3116.0544,0.026833
3117.9181,0.026777
3119.7818,0.026479
3121.6454,0.026491
3123.5091,0.026883
3125.3728,0.027003
3127.2364,0.027268
3129.1001,0.027842
3130.9638,0.028154
3132.8275,0.027882
3134.6911,0.027931
3136.5548,0.028406
3138.4185,0.028207
3140.2821,0.028217
3142.1458,0.028533
3144.0095,0.028393
3145.8731,0.028815
3147.7368,0.029276
3149.6005,0.029786
3151.4641,0.030027
3153.3278,0.029783
3155.1915,0.029851
3157.0551,0.029789
3158.9188,0.029959
3160.7825,0.030170
3162.6462,0.030561
3164.5098,0.031007
3166.3735,0.031441
3168.2372,0.032069
3170.1008,0.032026
3171.9645,0.031471
3173.8282,0.031015
3175.6918,0.031115
3177.5555,0.031589
3179.4192,0.032434
3181.2828,0.032798
3183.1465,0.032993
3185.0102,0.032980
3186.8739,0.032981
3188.7375,0.033285
3190.6012,0.033290
3192.4649,0.033144
3194.3285,0.033593
3196.1922,0.033991
3198.0559,0.033881
3199.9195,0.033929
3201.7832,0.034293
3203.6469,0.034417
3205.5105,0.034419
3207.3742,0.034756
3209.2379,0.034698
3211.1015,0.034273
3212.9652,0.034858
3214.8289,0.034949
3216.6926,0.035153
3218.5562,0.035191
3220.4199,0.035320
3222.2836,0.035910
3224.1472,0.035565
3226.0109,0.035717
3227.8746,0.036838
3229.7382,0.036277
3231.6019,0.035993
3233.4656,0.036444
3235.3292,0.036361
3237.1929,0.036296
3239.0566,0.036596
3240.9202,0.036761
3242.7839,0.037283
3244.6476,0.037239
3246.5113,0.036361
3248.3749,0.036414
3250.2386,0.036879
3252.1023,0.037203
3253.9659,0.037781
3255.8296,0.037514
3257.6933,0.037592
3259.5569,0.037909
3261.4206,0.037207
3263.2843,0.036636
3265.1479,0.038147
3267.0116,0.039361
3268.8753,0.038770
3270.7390,0.037997
3272.6026,0.037620
3274.4663,0.037874
3276.3300,0.038552
3278.1936,0.038746
3280.0573,0.038251
3281.9210,0.038310
3283.7846,0.038540
3285.6483,0.037974
3287.5120,0.038259
3289.3756,0.038742
3291.2393,0.038801
3293.1030,0.038719
3294.9666,0.038094
3296.8303,0.038329
3298.6940,0.038812
3300.5577,0.038525
3302.4213,0.038439
3304.2850,0.038747
3306.1487,0.039264
3308.0123,0.039434
3309.8760,0.038829
3311.7397,0.038799
3313.6033,0.039420
3315.4670,0.039253
3317.3307,0.038960
3319.1943,0.038381
3321.0580,0.039145
3322.9217,0.039887
3324.7854,0.039145
3326.6490,0.038092
3328.5127,0.038128
3330.3764,0.039068
3332.2400,0.039746
3334.1037,0.039218
3335.9674,0.039494
3337.8310,0.039660
3339.6947,0.039383
3341.5584,0.039004
3343.4220,0.040118
3345.2857,0.040825
3347.1494,0.039505
3349.0130,0.037649
3350.8767,0.037923
3352.7404,0.038752
3354.6041,0.038844
3356.4677,0.039298
3358.3314,0.039427
3360.1951,0.039650
3362.0587,0.039890
3363.9224,0.039271
3365.7861,0.040231
3367.6497,0.040440
3369.5134,0.039282
3371.3771,0.038463
3373.2407,0.038913
3375.1044,0.039150
3376.9681,0.039738
3378.8317,0.040686
3380.6954,0.040334
3382.5591,0.039454
3384.4228,0.039365
3386.2864,0.039322
3388.1501,0.038508
3390.0138,0.038919
3391.8774,0.039773
3393.7411,0.038555
3395.6048,0.038274
3397.4684,0.039248
3399.3321,0.040066
3401.1958,0.039478
3403.0594,0.038159
3404.9231,0.038796
3406.7868,0.039141
3408.6505,0.037821
3410.5141,0.037548
3412.3778,0.037636
3414.2415,0.038404
3416.1051,0.038678
3417.9688,0.038599
3419.8325,0.039268
3421.6961,0.038764
3423.5598,0.037106
3425.4235,0.036642
3427.2871,0.037122
3429.1508,0.036936
3431.0145,0.036296
3432.8781,0.036522
3434.7418,0.036398
3436.6055,0.035778
3438.4692,0.035880
3440.3328,0.036572
3442.1965,0.036416
3444.0602,0.035187
3445.9238,0.034560
3447.7875,0.036116
3449.6512,0.036601
3451.5148,0.035842
3453.3785,0.035636
3455.2422,0.034012
3457.1058,0.033390
3458.9695,0.034699
3460.8332,0.034766
3462.6969,0.034901
3464.5605,0.035267
3466.4242,0.035157
3468.2879,0.034628
3470.1515,0.034752
3472.0152,0.034319
3473.8789,0.033159
3475.7425,0.032467
3477.6062,0.033208
3479.4699,0.034014
3481.3335,0.034952
3483.1972,0.035038
3485.0609,0.034410
3486.9245,0.034365
3488.7882,0.033999
3490.6519,0.032508
3492.5156,0.032324
3494.3792,0.033437
3496.2429,0.033912
3498.1066,0.032561
3499.9702,0.032325
3501.8339,0.033370
3503.6976,0.034271
3505.5612,0.033843
3507.4249,0.031375
3509.2886,0.031038
3511.1522,0.033801
3513.0159,0.033549
3514.8796,0.032088
3516.7432,0.031971
3518.6069,0.031867
3520.4706,0.033114
3522.3343,0.033809
3524.1979,0.033370
3526.0616,0.034041
3527.9253,0.034205
3529.7889,0.033287
3531.6526,0.032568
3533.5163,0.032983
3535.3799,0.032953
3537.2436,0.032415
3539.1073,0.032421
3540.9709,0.032188
3542.8346,0.031670
3544.6983,0.032298
3546.5620,0.033272
3548.4256,0.032583
3550.2893,0.032893
3552.1530,0.033748
3554.0166,0.033583
3555.8803,0.032737
3557.7440,0.031016
3559.6076,0.030930
3561.4713,0.031783
3563.3350,0.031522
3565.1986,0.031211
3567.0623,0.032355
3568.9260,0.034111
3570.7896,0.034823
3572.6533,0.032765
3574.5170,0.031727
3576.3807,0.031357
3578.2443,0.030905
3580.1080,0.030897
3581.9717,0.030928
3583.8353,0.030256
3585.6990,0.029835
3587.5627,0.030750
3589.4263,0.032441
3591.2900,0.032839
3593.1537,0.030438
3595.0173,0.029745
3596.8810,0.030822
3598.7447,0.030373
3600.6084,0.029661
3602.4720,0.030434
3604.3357,0.030127
3606.1994,0.028198
3608.0630,0.028763
3609.9267,0.030164
3611.7904,0.031080
3613.6540,0.030173
3615.5177,0.029223
3617.3814,0.029246
3619.2450,0.029655
3621.1087,0.030436
3622.9724,0.029460
3624.8360,0.027776
3626.6997,0.026946
3628.5634,0.028284
3630.4271,0.029780
3632.2907,0.028816
3634.1544,0.025731
3636.0181,0.025440
3637.8817,0.024540
3639.7454,0.023074
3641.6091,0.022856
3643.4727,0.022888
3645.3364,0.022980
3647.2001,0.022442
3649.0637,0.023500
3650.9274,0.025938
3652.7911,0.025391
3654.6547,0.023334
3656.5184,0.021468
3658.3821,0.022028
3660.2458,0.021801
3662.1094,0.019812
3663.9731,0.019770
3665.8368,0.019317
3667.7004,0.018758
3669.5641,0.019701
3671.4278,0.021285
3673.2914,0.022692
3675.1551,0.021552
3677.0188,0.020339
3678.8824,0.020322
3680.7461,0.016649
3682.6098,0.015976
3684.4735,0.014520
3686.3371,0.013639
3688.2008,0.013437
3690.0645,0.015218
3691.9281,0.016150
3693.7918,0.013954
3695.6555,0.012782
3697.5191,0.011520
3699.3828,0.012061
3701.2465,0.012015
3703.1101,0.012436
3704.9738,0.013472
3706.8375,0.012504
3708.7011,0.011624
3710.5648,0.012105
3712.4285,0.013463
3714.2922,0.014313
3716.1558,0.013854
3718.0195,0.012433
3719.8832,0.012145
3721.7468,0.012226
3723.6105,0.012043
3725.4742,0.012309
3727.3378,0.011177
3729.2015,0.010356
3731.0652,0.008356
3732.9288,0.008068
3734.7925,0.011334
3736.6562,0.011797
3738.5199,0.012207
3740.3835,0.009986
3742.2472,0.007915
3744.1109,0.009028
3745.9745,0.008838
3747.8382,0.010538
3749.7019,0.007035
3751.5655,0.009330
3753.4292,0.011493
3755.2929,0.010843
3757.1565,0.008755
3759.0202,0.008325
3760.8839,0.009080
3762.7475,0.009217
3764.6112,0.008437
3766.4749,0.008042
3768.3386,0.009583
3770.2022,0.008575
3772.0659,0.008741
3773.9296,0.008708
3775.7932,0.007565
3777.6569,0.008011
3779.5206,0.008500
3781.3842,0.009048
3783.2479,0.008798
3785.1116,0.007888
3786.9752,0.008411
3788.8389,0.008153
3790.7026,0.007825
3792.5662,0.007922
3794.4299,0.007544
3796.2936,0.007349
3798.1573,0.007525
3800.0209,0.008695
3801.8846,0.007722
3803.7483,0.010257
3805.6119,0.010795
3807.4756,0.008736
3809.3393,0.010286
3811.2029,0.009181
3813.0666,0.007422
3814.9303,0.008049
3816.7939,0.007819
3818.6576,0.010565
3820.5213,0.010524
3822.3850,0.009386
3824.2486,0.011037
3826.1123,0.009064
3827.9760,0.008220
3829.8396,0.009148
3831.7033,0.008354
3833.5670,0.008722
3835.4306,0.008830
3837.2943,0.007918
3839.1580,0.009436
3841.0216,0.011360
3842.8853,0.011582
3844.7490,0.010848
3846.6126,0.009637
3848.4763,0.007809
3850.3400,0.006904
3852.2037,0.007770
3854.0673,0.010865
3855.9310,0.013979
3857.7947,0.011690
3859.6583,0.008438
3861.5220,0.008452
3863.3857,0.008561
3865.2493,0.008767
3867.1130,0.008373
3868.9767,0.009634
3870.8403,0.008445
3872.7040,0.011996
3874.5677,0.010836
3876.4314,0.009615
3878.2950,0.008951
3880.1587,0.008815
3882.0224,0.010374
3883.8860,0.010872
3885.7497,0.009241
3887.6134,0.009863
3889.4770,0.010157
3891.3407,0.008633
3893.2044,0.009121
3895.0680,0.009671
3896.9317,0.009044
3898.7954,0.008767
3900.6590,0.008760
3902.5227,0.010421
3904.3864,0.010989
3906.2501,0.010118
3908.1137,0.008824
3909.9774,0.008422
3911.8411,0.008551
3913.7047,0.008258
3915.5684,0.008759
3917.4321,0.009366
3919.2957,0.009935
3921.1594,0.009557
3923.0231,0.009118
3924.8867,0.009522
3926.7504,0.009921
3928.6141,0.010414
3930.4777,0.009320
3932.3414,0.009690
3934.2051,0.010196
3936.0688,0.010418
3937.9324,0.008990
3939.7961,0.008569
3941.6598,0.009596
3943.5234,0.010119
3945.3871,0.009971
3947.2508,0.009533
3949.1144,0.009149
3950.9781,0.009878
3952.8418,0.009127
3954.7054,0.008661
3956.5691,0.008633
3958.4328,0.009109
3960.2965,0.009161
3962.1601,0.008963
3964.0238,0.008574
3965.8875,0.008688
3967.7511,0.008947
3969.6148,0.009733
3971.4785,0.009561
3973.3421,0.009067
3975.2058,0.008710
3977.0695,0.009005
3978.9331,0.009083
3980.7968,0.008858
3982.6605,0.008615
3984.5241,0.009492
3986.3878,0.009328
3988.2515,0.008878
3990.1152,0.008725
3991.9788,0.008536
3993.8425,0.007832
3995.7062,0.008330
3997.5698,0.009357
3999.4335,0.009477
4001.2972,0.008922
4003.1608,0.008992
4005.0245,0.009002
4006.8882,0.009533
4008.7518,0.009053
4010.6155,0.008270
4012.4792,0.008515
4014.3429,0.009378
4016.2065,0.009324
4018.0702,0.009175
4019.9339,0.009104
4021.7975,0.009170
4023.6612,0.008690
4025.5249,0.008666
4027.3885,0.008728
4029.2522,0.008790
4031.1159,0.008929
4032.9795,0.009776
4034.8432,0.009634
4036.7069,0.009610
4038.5705,0.009372
4040.4342,0.008797
4042.2979,0.008619
4044.1616,0.009292
4046.0252,0.009743
4047.8889,0.009610
4049.7526,0.008978
4051.6162,0.008956
4053.4799,0.008666
4055.3436,0.009592
4057.2072,0.009425
4059.0709,0.009222
4060.9346,0.008958
4062.7982,0.008799
4064.6619,0.008713
4066.5256,0.009368
4068.3892,0.009532
4070.2529,0.009489
4072.1166,0.009035
4073.9803,0.009134
4075.8439,0.008794
4077.7076,0.008637
4079.5713,0.009143
4081.4349,0.009626
4083.2986,0.009418
4085.1623,0.009054
4087.0259,0.009023
4088.8896,0.009150
4090.7533,0.008632
4092.6169,0.009021
4094.4806,0.009458
4096.3443,0.009843
4098.2080,0.009578
4100.0716,0.009345
