Wavenumber,Intensity
600.1014,0.199961
601.9651,0.195334
603.8287,0.188983
605.6924,0.193109
607.5561,0.185535
609.4197,0.177535
611.2834,0.170975
613.1471,0.174343
615.0107,0.184108
616.8744,0.180375
618.7381,0.169899
620.6017,0.180024
622.4654,0.189427
624.3291,0.187147
626.1928,0.180774
628.0564,0.179581
629.9201,0.180238
631.7838,0.179495
633.6474,0.179161
635.5111,0.180462
637.3748,0.181323
639.2384,0.183684
641.1021,0.185537
642.9658,0.185753
644.8294,0.187603
646.6931,0.187729
648.5568,0.186892
650.4205,0.184338
652.2841,0.181235
654.1478,0.180145
656.0115,0.178638
657.8751,0.177458
659.7388,0.175255
661.6025,0.177119
663.4661,0.179366
665.3298,0.180100
667.1935,0.179324
669.0571,0.176939
670.9208,0.176906
672.7845,0.176053
674.6481,0.174958
676.5118,0.174035
678.3755,0.172356
680.2392,0.170497
682.1028,0.168964
683.9665,0.166410
685.8302,0.162832
687.6938,0.159371
689.5575,0.155653
691.4212,0.152046
693.2848,0.149916
695.1485,0.148544
697.0122,0.147457
698.8758,0.145724
700.7395,0.144403
702.6032,0.143720
704.4669,0.144330
706.3305,0.146020
708.1942,0.147662
710.0579,0.150338
711.9215,0.152664
713.7852,0.153291
715.6489,0.153572
717.5125,0.154841
719.3762,0.156606
721.2399,0.157947
723.1035,0.158429
724.9672,0.157940
726.8309,0.157688
728.6945,0.157463
730.5582,0.156327
732.4219,0.155317
734.2856,0.154668
736.1492,0.153968
738.0129,0.153784
739.8766,0.153412
741.7402,0.152910
743.6039,0.153014
745.4676,0.152509
747.3312,0.151755
749.1949,0.151419
751.0586,0.151330
752.9222,0.150689
754.7859,0.150614
756.6496,0.151046
758.5132,0.151286
760.3769,0.150764
762.2406,0.149665
764.1043,0.148134
765.9679,0.146715
767.8316,0.145468
769.6953,0.144349
771.5589,0.143140
773.4226,0.142211
775.2863,0.141518
777.1499,0.140889
779.0136,0.139792
780.8773,0.138960
782.7409,0.139249
784.6046,0.139611
786.4683,0.140467
788.3320,0.140897
790.1956,0.140430
792.0593,0.139914
793.9230,0.140056
795.7866,0.140073
797.6503,0.140262
799.5140,0.140922
801.3776,0.141693
803.2413,0.142466
805.1050,0.143559
806.9686,0.145017
808.8323,0.146045
810.6960,0.147172
812.5596,0.148647
814.4233,0.150062
816.2870,0.151225
818.1507,0.151938
820.0143,0.151989
821.8780,0.152021
823.7417,0.152112
825.6053,0.152240
827.4690,0.152466
829.3327,0.153144
831.1963,0.154467
833.0600,0.156756
834.9237,0.159726
836.7873,0.162767
838.6510,0.165709
840.5147,0.169279
842.3784,0.173126
844.2420,0.177325
846.1057,0.181861
847.9694,0.186418
849.8330,0.190869
851.6967,0.195283
853.5604,0.199876
855.4240,0.204982
857.2877,0.210022
859.1514,0.214928
861.0150,0.219605
862.8787,0.224520
864.7424,0.229520
866.6060,0.234384
868.4697,0.239567
870.3334,0.244590
872.1971,0.248858
874.0607,0.252134
875.9244,0.254560
877.7881,0.256799
879.6517,0.259108
881.5154,0.261747
883.3791,0.264580
885.2427,0.267923
887.1064,0.271628
888.9701,0.276030
890.8337,0.281038
892.6974,0.286390
894.5611,0.291984
896.4247,0.297819
898.2884,0.303398
900.1521,0.309131
902.0158,0.314787
903.8794,0.320400
905.7431,0.325569
907.6068,0.330370
909.4704,0.334838
911.3341,0.339263
913.1978,0.343398
915.0614,0.347268
916.9251,0.350750
918.7888,0.354231
920.6524,0.357638
922.5161,0.361038
924.3798,0.364531
926.2435,0.368342
928.1071,0.372113
929.9708,0.375852
931.8345,0.379709
933.6981,0.384042
935.5618,0.388282
937.4255,0.392301
939.2891,0.396298
941.1528,0.400326
943.0165,0.403791
944.8801,0.406878
946.7438,0.409150
948.6075,0.410379
950.4711,0.410433
952.3348,0.409915
954.1985,0.408444
956.0622,0.406352
957.9258,0.403484
959.7895,0.399996
961.6532,0.396461
963.5168,0.393301
965.3805,0.390067
967.2442,0.386907
969.1078,0.384069
970.9715,0.381928
972.8352,0.380298
974.6988,0.379163
976.5625,0.377967
978.4262,0.376661
980.2899,0.374984
982.1535,0.373233
984.0172,0.370942
985.8809,0.368121
987.7445,0.364386
989.6082,0.359981
991.4719,0.354838
993.3355,0.349073
995.1992,0.342725
997.0629,0.336007
998.9265,0.328910
1000.7902,0.321568
1002.6539,0.313925
1004.5175,0.306296
1006.3812,0.298613
1008.2449,0.291013
1010.1086,0.283229
1011.9722,0.275195
1013.8359,0.267138
1015.6996,0.259216
1017.5632,0.251377
1019.4269,0.243785
1021.2906,0.236392
1023.1542,0.229494
1025.0179,0.222883
1026.8816,0.216620
1028.7452,0.210507
1030.6089,0.204632
1032.4726,0.198830
1034.3362,0.193249
1036.1999,0.187922
1038.0636,0.182850
1039.9273,0.177982
1041.7909,0.173437
1043.6546,0.169130
1045.5183,0.165122
1047.3819,0.161335
1049.2456,0.157885
1051.1093,0.154892
1052.9729,0.152012
1054.8366,0.148992
1056.7003,0.146155
1058.5639,0.143554
1060.4276,0.140972
1062.2913,0.138410
1064.1550,0.136007
1066.0186,0.133605
1067.8823,0.131220
1069.7460,0.128900
1071.6096,0.126612
1073.4733,0.124144
1075.3370,0.121573
1077.2006,0.118993
1079.0643,0.116476
1080.9280,0.113979
1082.7916,0.111383
1084.6553,0.108821
1086.5190,0.106350
1088.3826,0.103831
1090.2463,0.101343
1092.1100,0.098848
1093.9737,0.096331
1095.8373,0.093755
1097.7010,0.091217
1099.5647,0.088741
1101.4283,0.086203
1103.2920,0.083627
1105.1557,0.081231
1107.0193,0.078975
1108.8830,0.076661
1110.7467,0.074350
1112.6103,0.072168
1114.4740,0.069982
1116.3377,0.067863
1118.2014,0.065881
1120.0650,0.063985
1121.9287,0.062153
1123.7924,0.060444
1125.6560,0.058887
1127.5197,0.057415
1129.3834,0.055921
1131.2470,0.054672
1133.1107,0.053689
1134.9744,0.052695
1136.8380,0.051706
1138.7017,0.050820
1140.5654,0.050019
1142.4290,0.049262
1144.2927,0.048530
1146.1564,0.047765
1148.0201,0.046912
1149.8837,0.046151
1151.7474,0.045416
1153.6111,0.044647
1155.4747,0.043891
1157.3384,0.043053
1159.2021,0.042108
1161.0657,0.041176
1162.9294,0.040213
1164.7931,0.039217
1166.6567,0.038093
1168.5204,0.036920
1170.3841,0.035822
1172.2477,0.034720
1174.1114,0.033660
1175.9751,0.032598
1177.8388,0.031551
1179.7024,0.030439
1181.5661,0.029274
1183.4298,0.028214
1185.2934,0.027176
1187.1571,0.026061
1189.0208,0.024954
1190.8844,0.023871
1192.7481,0.022855
1194.6118,0.021902
1196.4754,0.021004
1198.3391,0.020074
1200.2028,0.019144
1202.0665,0.018382
1203.9301,0.017692
1205.7938,0.016973
1207.6575,0.016279
1209.5211,0.015677
1211.3848,0.015153
1213.2485,0.014710
1215.1121,0.014215
1216.9758,0.013703
1218.8395,0.013324
1220.7031,0.012996
1222.5668,0.012673
1224.4305,0.012410
1226.2941,0.012124
1228.1578,0.011843
1230.0215,0.011618
1231.8852,0.011552
1233.7488,0.011385
1235.6125,0.011197
1237.4762,0.011041
1239.3398,0.010855
1241.2035,0.010829
1243.0672,0.010815
1244.9308,0.010672
1246.7945,0.010515
1248.6582,0.010407
1250.5218,0.010362
1252.3855,0.010342
1254.2492,0.010338
1256.1129,0.010296
1257.9765,0.010243
1259.8402,0.010210
1261.7039,0.010115
1263.5675,0.010068
1265.4312,0.010033
1267.2949,0.009951
1269.1585,0.009949
1271.0222,0.010095
1272.8859,0.010185
1274.7495,0.010142
1276.6132,0.010027
1278.4769,0.009969
1280.3405,0.010066
1282.2042,0.010191
1284.0679,0.010269
1285.9316,0.010249
1287.7952,0.010113
1289.6589,0.010081
1291.5226,0.010226
1293.3862,0.010370
1295.2499,0.010418
1297.1136,0.010424
1298.9772,0.010436
1300.8409,0.010512
1302.7046,0.010599
1304.5682,0.010707
1306.4319,0.010762
1308.2956,0.010774
1310.1592,0.010865
1312.0229,0.011072
1313.8866,0.011198
1315.7503,0.011301
1317.6139,0.011375
1319.4776,0.011318
1321.3413,0.011347
1323.2049,0.011491
1325.0686,0.011587
1326.9323,0.011705
1328.7959,0.011844
1330.6596,0.011979
1332.5233,0.012063
1334.3869,0.012242
1336.2506,0.012537
1338.1143,0.012689
1339.9780,0.012605
1341.8416,0.012494
1343.7053,0.012684
1345.5690,0.012943
1347.4326,0.013154
1349.2963,0.013299
1351.1600,0.013408
1353.0236,0.013658
1354.8873,0.013913
1356.7510,0.014085
1358.6146,0.014299
1360.4783,0.014652
1362.3420,0.014817
1364.2056,0.014539
1366.0693,0.014698
1367.9330,0.015075
1369.7967,0.015249
1371.6603,0.015664
1373.5240,0.016049
1375.3877,0.015871
1377.2513,0.015978
1379.1150,0.016266
1380.9787,0.016421
1382.8423,0.016646
1384.7060,0.017131
1386.5697,0.017587
1388.4333,0.017330
1390.2970,0.017419
1392.1607,0.018214
1394.0244,0.018728
1395.8880,0.018426
1397.7517,0.018524
1399.6154,0.018324
1401.4790,0.018296
1403.3427,0.018970
1405.2064,0.019063
1407.0700,0.018899
1408.9337,0.019225
1410.7974,0.019484
1412.6610,0.019519
1414.5247,0.019794
1416.3884,0.020367
1418.2520,0.020515
1420.1157,0.019218
1421.9794,0.019130
1423.8431,0.019411
1425.7067,0.019044
1427.5704,0.019462
1429.4341,0.019752
1431.2977,0.019278
1433.1614,0.019367
1435.0251,0.020153
1436.8887,0.019331
1438.7524,0.018025
1440.6161,0.018474
1442.4797,0.018693
1444.3434,0.018713
1446.2071,0.018893
1448.0707,0.018590
1449.9344,0.018203
1451.7981,0.018468
1453.6618,0.019054
1455.5254,0.019880
1457.3891,0.018410
1459.2528,0.016407
1461.1164,0.016937
1462.9801,0.017846
1464.8438,0.017492
1466.7074,0.016623
1468.5711,0.016966
1470.4348,0.017844
1472.2984,0.017750
1474.1621,0.016247
1476.0258,0.015845
1477.8895,0.015742
1479.7531,0.015923
1481.6168,0.015956
1483.4805,0.015746
1485.3441,0.015970
1487.2078,0.016279
1489.0715,0.016016
1490.9351,0.014815
1492.7988,0.014474
1494.6625,0.015276
1496.5261,0.015254
1498.3898,0.014244
1500.2535,0.013907
1502.1171,0.014060
1503.9808,0.014997
1505.8445,0.016044
1507.7082,0.013850
1509.5718,0.012545
1511.4355,0.012957
1513.2992,0.013265
1515.1628,0.013750
1517.0265,0.013512
1518.8902,0.013172
1520.7538,0.013571
1522.6175,0.012395
1524.4812,0.011974
1526.3448,0.012157
1528.2085,0.011935
1530.0722,0.012056
1531.9359,0.012559
1533.7995,0.012258
1535.6632,0.011670
1537.5269,0.012650
1539.3905,0.013311
1541.2542,0.011537
1543.1179,0.010817
1544.9815,0.010732
1546.8452,0.010642
1548.7089,0.011100
1550.5725,0.011093
1552.4362,0.011139
1554.2999,0.011502
1556.1635,0.011858
1558.0272,0.012962
1559.8909,0.010801
1561.7546,0.009559
1563.6182,0.010335
1565.4819,0.010632
1567.3456,0.010996
1569.2092,0.011398
1571.0729,0.010834
1572.9366,0.011071
1574.8002,0.011970
1576.6639,0.011579
1578.5276,0.010753
1580.3912,0.011203
1582.2549,0.011620
1584.1186,0.011745
1585.9822,0.011783
1587.8459,0.012041
1589.7096,0.012265
1591.5733,0.012400
1593.4369,0.012647
1595.3006,0.012866
1597.1643,0.013011
1599.0279,0.013162
1600.8916,0.013434
1602.7553,0.013832
1604.6189,0.014114
1606.4826,0.014457
1608.3463,0.014914
1610.2099,0.015216
1612.0736,0.015521
1613.9373,0.016248
1615.8010,0.017270
1617.6646,0.016898
1619.5283,0.016674
1621.3920,0.017676
1623.2556,0.018056
1625.1193,0.017901
1626.9830,0.018524
1628.8466,0.018941
1630.7103,0.019083
1632.5740,0.019931
1634.4376,0.021158
1636.3013,0.020297
1638.1650,0.019287
1640.0286,0.019748
1641.8923,0.020126
1643.7560,0.020686
1645.6197,0.021067
1647.4833,0.019842
1649.3470,0.019711
1651.2107,0.021674
1653.0743,0.021588
1654.9380,0.017826
1656.8017,0.018078
1658.6653,0.018828
1660.5290,0.019127
1662.3927,0.018801
1664.2563,0.017789
1666.1200,0.017859
1667.9837,0.018528
1669.8474,0.017859
1671.7110,0.016816
1673.5747,0.017196
1675.4384,0.016882
1677.3020,0.015809
1679.1657,0.015926
1681.0294,0.016256
1682.8930,0.016881
1684.7567,0.015549
1686.6204,0.013800
1688.4840,0.014006
1690.3477,0.013858
1692.2114,0.013709
1694.0750,0.014133
1695.9387,0.013889
1697.8024,0.013332
1699.6661,0.013765
1701.5297,0.011730
1703.3934,0.011211
1705.2571,0.011732
1707.1207,0.011296
1708.9844,0.011030
1710.8481,0.011116
1712.7117,0.011430
1714.5754,0.011879
1716.4391,0.011773
1718.3027,0.010383
1720.1664,0.009452
1722.0301,0.009884
1723.8937,0.010020
1725.7574,0.009895
1727.6211,0.010099
1729.4848,0.010377
1731.3484,0.010681
1733.2121,0.011048
1735.0758,0.009714
1736.9394,0.009198
1738.8031,0.009714
1740.6668,0.009348
1742.5304,0.009267
1744.3941,0.009551
1746.2578,0.009766
1748.1214,0.009962
1749.9851,0.009810
1751.8488,0.009142
1753.7125,0.009003
1755.5761,0.009497
1757.4398,0.009326
1759.3035,0.009353
1761.1671,0.009594
1763.0308,0.009034
1764.8945,0.008946
1766.7581,0.009435
1768.6218,0.009528
1770.4855,0.009697
1772.3491,0.009646
1774.2128,0.008888
1776.0765,0.008910
1777.9401,0.009182
1779.8038,0.009532
1781.6675,0.009599
1783.5312,0.009448
1785.3948,0.009320
1787.2585,0.009356
1789.1222,0.009714
1790.9858,0.010062
1792.8495,0.009768
1794.7132,0.009401
1796.5768,0.009550
1798.4405,0.009841
1800.3042,0.009918
1802.1678,0.009455
1804.0315,0.009258
1805.8952,0.009473
1807.7589,0.009600
1809.6225,0.009609
1811.4862,0.009432
1813.3499,0.009213
1815.2135,0.009373
1817.0772,0.009642
1818.9409,0.009701
1820.8045,0.009498
1822.6682,0.009585
1824.5319,0.009943
1826.3955,0.009814
1828.2592,0.009786
1830.1229,0.009639
1831.9865,0.009265
1833.8502,0.009414
1835.7139,0.009393
1837.5776,0.009361
1839.4412,0.009430
1841.3049,0.009700
1843.1686,0.010164
1845.0322,0.009941
1846.8959,0.009379
1848.7596,0.009271
1850.6232,0.009337
1852.4869,0.009592
1854.3506,0.009629
1856.2142,0.009531
1858.0779,0.009380
1859.9416,0.009285
1861.8052,0.009424
1863.6689,0.009811
1865.5326,0.010321
1867.3963,0.010496
1869.2599,0.009918
1871.1236,0.009349
1872.9873,0.009302
1874.8509,0.009382
1876.7146,0.009530
1878.5783,0.009784
1880.4419,0.009915
1882.3056,0.009917
1884.1693,0.009817
1886.0329,0.009824
1887.8966,0.010079
1889.7603,0.009977
1891.6240,0.009539
1893.4876,0.009756
1895.3513,0.009930
1897.2150,0.009747
1899.0786,0.009802
1900.9423,0.009852
1902.8060,0.009768
1904.6696,0.009663
1906.5333,0.009599
1908.3970,0.010034
1910.2606,0.010428
1912.1243,0.010305
1913.9880,0.010045
1915.8516,0.010074
1917.7153,0.010311
1919.5790,0.010198
1921.4427,0.010009
1923.3063,0.010044
1925.1700,0.009778
1927.0337,0.009482
1928.8973,0.009674
1930.7610,0.009812
1932.6247,0.009840
1934.4883,0.010082
1936.3520,0.010056
1938.2157,0.009919
1940.0793,0.010098
1941.9430,0.010394
1943.8067,0.009797
1945.6704,0.009324
1947.5340,0.009669
1949.3977,0.010148
1951.2614,0.009947
1953.1250,0.009639
1954.9887,0.009790
1956.8524,0.009967
1958.7160,0.010055
1960.5797,0.010374
1962.4434,0.010633
1964.3070,0.010549
1966.1707,0.010561
1968.0344,0.009862
1969.8980,0.009002
1971.7617,0.009288
1973.6254,0.009396
1975.4891,0.009348
1977.3527,0.009555
1979.2164,0.010250
1981.0801,0.010862
1982.9437,0.010914
1984.8074,0.010714
1986.6711,0.010340
1988.5347,0.010201
1990.3984,0.010028
1992.2621,0.010217
1994.1257,0.011061
1995.9894,0.011099
1997.8531,0.010553
1999.7167,0.010394
2001.5804,0.010126
2003.4441,0.009600
2005.3078,0.009730
2007.1714,0.010268
2009.0351,0.010204
2010.8988,0.009366
2012.7624,0.008827
2014.6261,0.009110
2016.4898,0.010018
2018.3534,0.010864
2020.2171,0.010899
2022.0808,0.010380
2023.9444,0.009778
2025.8081,0.009634
2027.6718,0.009677
2029.5355,0.009728
2031.3991,0.010618
2033.2628,0.010917
2035.1265,0.010362
2036.9901,0.010219
2038.8538,0.010043
2040.7175,0.009935
2042.5811,0.010607
2044.4448,0.010721
2046.3085,0.010209
2048.1721,0.010006
2050.0358,0.010271
2051.8995,0.010324
2053.7631,0.010008
2055.6268,0.009671
2057.4905,0.009524
2059.3542,0.009745
2061.2178,0.010199
2063.0815,0.010592
2064.9452,0.010744
2066.8088,0.010923
2068.6725,0.010922
2070.5362,0.010468
2072.3998,0.010076
2074.2635,0.010138
2076.1272,0.010434
2077.9908,0.010639
2079.8545,0.010588
2081.7182,0.010222
2083.5819,0.010107
2085.4455,0.010285
2087.3092,0.010575
2089.1729,0.010144
2091.0365,0.009426
2092.9002,0.009680
2094.7639,0.010302
2096.6275,0.010770
2098.4912,0.010577
2100.3549,0.010239
2102.2185,0.010604
2104.0822,0.010710
2105.9459,0.010551
2107.8095,0.010700
2109.6732,0.011065
2111.5369,0.010768
2113.4006,0.009912
2115.2642,0.009818
2117.1279,0.010215
2118.9916,0.010262
2120.8552,0.010385
2122.7189,0.010408
2124.5826,0.010248
2126.4462,0.010077
2128.3099,0.009646
2130.1736,0.009239
2132.0372,0.009334
2133.9009,0.009850
2135.7646,0.010330
2137.6282,0.010378
2139.4919,0.010323
2141.3556,0.010108
2143.2193,0.009587
2145.0829,0.009544
2146.9466,0.009386
2148.8103,0.008455
2150.6739,0.008661
2152.5376,0.009107
2154.4013,0.008846
2156.2649,0.009279
2158.1286,0.009485
2159.9923,0.009828
2161.8559,0.010600
2163.7196,0.010742
2165.5833,0.010786
2167.4470,0.010183
2169.3106,0.009397
2171.1743,0.009736
2173.0380,0.010923
2174.9016,0.010904
2176.7653,0.010023
2178.6290,0.010040
2180.4926,0.010622
2182.3563,0.011094
2184.2200,0.010791
2186.0836,0.010511
2187.9473,0.011036
2189.8110,0.011134
2191.6746,0.010649
2193.5383,0.010397
2195.4020,0.010330
2197.2657,0.010508
2199.1293,0.010833
2200.9930,0.011103
2202.8567,0.011399
2204.7203,0.011119
2206.5840,0.010216
2208.4477,0.009864
2210.3113,0.010475
2212.1750,0.011159
2214.0387,0.011379
2215.9023,0.011139
2217.7660,0.011075
2219.6297,0.011229
2221.4934,0.011001
2223.3570,0.010596
2225.2207,0.010657
2227.0844,0.011303
2228.9480,0.011757
2230.8117,0.011186
2232.6754,0.010719
2234.5390,0.010926
2236.4027,0.011061
2238.2664,0.011291
2240.1300,0.011598
2241.9937,0.011429
2243.8574,0.011264
2245.7210,0.011452
2247.5847,0.011459
2249.4484,0.011112
2251.3121,0.010744
2253.1757,0.010980
2255.0394,0.011408
2256.9031,0.011426
2258.7667,0.011762
2260.6304,0.012374
2262.4941,0.012048
2264.3577,0.011310
2266.2214,0.011197
2268.0851,0.011483
2269.9487,0.011579
2271.8124,0.011476
2273.6761,0.011416
2275.5397,0.011678
2277.4034,0.011789
2279.2671,0.011549
2281.1308,0.011542
2282.9944,0.011732
2284.8581,0.011941
2286.7218,0.011905
2288.5854,0.011800
2290.4491,0.011780
2292.3128,0.011784
2294.1764,0.011632
2296.0401,0.011531
2297.9038,0.011487
2299.7674,0.011306
2301.6311,0.011367
2303.4948,0.011541
2305.3585,0.011636
2307.2221,0.011596
2309.0858,0.011304
2310.9495,0.011315
2312.8131,0.011544
2314.6768,0.011511
2316.5405,0.011639
2318.4041,0.011747
2320.2678,0.011672
2322.1315,0.011786
2323.9951,0.011688
2325.8588,0.011047
2327.7225,0.010539
2329.5861,0.010758
2331.4498,0.010891
2333.3135,0.010519
2335.1772,0.010378
2337.0408,0.010577
2338.9045,0.010717
2340.7682,0.010729
2342.6318,0.010680
2344.4955,0.010336
2346.3592,0.010078
2348.2228,0.010299
2350.0865,0.010793
2351.9502,0.010987
2353.8138,0.010781
2355.6775,0.010845
2357.5412,0.010984
2359.4049,0.011041
2361.2685,0.010828
2363.1322,0.010401
2364.9959,0.010518
2366.8595,0.010766
2368.7232,0.010815
2370.5869,0.010485
2372.4505,0.009930
2374.3142,0.010077
2376.1779,0.010384
2378.0415,0.010494
2379.9052,0.010802
2381.7689,0.010929
2383.6325,0.010810
2385.4962,0.011073
2387.3599,0.011423
2389.2236,0.011268
2391.0872,0.011065
2392.9509,0.011234
2394.8146,0.011418
2396.6782,0.011394
2398.5419,0.011465
2400.4056,0.011497
2402.2692,0.011620
2404.1329,0.011684
2405.9966,0.011327
2407.8602,0.011159
2409.7239,0.011267
2411.5876,0.011335
2413.4512,0.011367
2415.3149,0.011397
2417.1786,0.011434
2419.0423,0.011621
2420.9059,0.011739
2422.7696,0.011611
2424.6333,0.011634
2426.4969,0.011741
2428.3606,0.011757
2430.2243,0.011795
2432.0879,0.011865
2433.9516,0.011944
2435.8153,0.011772
2437.6789,0.011570
2439.5426,0.011659
2441.4063,0.011860
2443.2700,0.011972
2445.1336,0.011682
2446.9973,0.011435
2448.8610,0.011627
2450.7246,0.011607
2452.5883,0.011486
2454.4520,0.011720
2456.3156,0.011824
2458.1793,0.011585
2460.0430,0.011325
2461.9066,0.011364
2463.7703,0.011829
2465.6340,0.012126
2467.4976,0.011912
2469.3613,0.011793
2471.2250,0.011926
2473.0887,0.011951
2474.9523,0.011918
2476.8160,0.012003
2478.6797,0.012098
2480.5433,0.012028
2482.4070,0.011683
2484.2707,0.011557
2486.1343,0.011833
2487.9980,0.011847
2489.8617,0.011881
2491.7253,0.011881
2493.5890,0.011871
2495.4527,0.011739
2497.3164,0.011556
2499.1800,0.011943
2501.0437,0.012218
2502.9074,0.012124
2504.7710,0.012115
2506.6347,0.012423
2508.4984,0.012406
2510.3620,0.011892
2512.2257,0.011844
2514.0894,0.012094
2515.9530,0.012422
2517.8167,0.012574
2519.6804,0.012239
2521.5440,0.012158
2523.4077,0.012189
2525.2714,0.011964
2527.1351,0.012095
2528.9987,0.012365
2530.8624,0.012360
2532.7261,0.012473
2534.5897,0.012342
2536.4534,0.011994
2538.3171,0.012094
2540.1807,0.012232
2542.0444,0.012003
2543.9081,0.011872
2545.7717,0.012280
2547.6354,0.012619
2549.4991,0.012436
2551.3627,0.012345
2553.2264,0.012049
2555.0901,0.011756
2556.9538,0.011919
2558.8174,0.012130
2560.6811,0.012137
2562.5448,0.012202
2564.4084,0.012397
2566.2721,0.012371
2568.1358,0.012377
2569.9994,0.012641
2571.8631,0.012574
2573.7268,0.012124
2575.5904,0.012290
2577.4541,0.012583
2579.3178,0.012475
2581.1815,0.012363
2583.0451,0.012252
2584.9088,0.012199
2586.7725,0.012244
2588.6361,0.012231
2590.4998,0.012038
2592.3635,0.012165
2594.2271,0.012344
2596.0908,0.012180
2597.9545,0.012280
2599.8181,0.012543
2601.6818,0.012695
2603.5455,0.012642
2605.4091,0.012584
2607.2728,0.012651
2609.1365,0.012403
2611.0002,0.012322
2612.8638,0.012314
2614.7275,0.012276
2616.5912,0.012521
2618.4548,0.012691
2620.3185,0.012389
2622.1822,0.012164
2624.0458,0.012117
2625.9095,0.012046
2627.7732,0.012199
2629.6368,0.012262
2631.5005,0.012245
2633.3642,0.012372
2635.2279,0.012222
2637.0915,0.012387
2638.9552,0.012793
2640.8189,0.012676
2642.6825,0.012436
2644.5462,0.012283
2646.4099,0.012312
2648.2735,0.012338
2650.1372,0.012240
2652.0009,0.012295
2653.8645,0.012415
2655.7282,0.012425
2657.5919,0.012455
2659.4555,0.012599
2661.3192,0.012357
2663.1829,0.012016
2665.0466,0.012152
2666.9102,0.012226
2668.7739,0.012119
2670.6376,0.012295
2672.5012,0.012294
2674.3649,0.011952
2676.2286,0.011966
2678.0922,0.012179
2679.9559,0.012189
2681.8196,0.012196
2683.6832,0.012180
2685.5469,0.011993
2687.4106,0.011911
2689.2742,0.012114
2691.1379,0.012309
2693.0016,0.012353
2694.8653,0.012394
2696.7289,0.012452
2698.5926,0.012421
2700.4563,0.012450
2702.3199,0.012380
2704.1836,0.012228
2706.0473,0.012090
2707.9109,0.012015
2709.7746,0.012180
2711.6383,0.012410
2713.5019,0.012407
2715.3656,0.012317
2717.2293,0.012611
2719.0930,0.012760
2720.9566,0.012533
2722.8203,0.012515
2724.6840,0.012591
2726.5476,0.012532
2728.4113,0.012699
2730.2750,0.012702
2732.1386,0.012504
2734.0023,0.012556
2735.8660,0.012815
2737.7296,0.012840
2739.5933,0.012675
2741.4570,0.012786
2743.3206,0.012778
2745.1843,0.012644
2747.0480,0.012913
2748.9117,0.013007
2750.7753,0.012808
2752.6390,0.012992
2754.5027,0.013233
2756.3663,0.013081
2758.2300,0.012952
2760.0937,0.013061
2761.9573,0.013083
2763.8210,0.012966
2765.6847,0.012900
2767.5483,0.012989
2769.4120,0.013170
2771.2757,0.013249
2773.1394,0.013135
2775.0030,0.012896
2776.8667,0.012960
2778.7304,0.013233
2780.5940,0.013344
2782.4577,0.013429
2784.3214,0.013612
2786.1850,0.013572
2788.0487,0.013462
2789.9124,0.013399
2791.7760,0.013213
2793.6397,0.013350
2795.5034,0.013381
2797.3670,0.013251
2799.2307,0.013423
2801.0944,0.013532
2802.9581,0.013477
2804.8217,0.013630
2806.6854,0.013586
2808.5491,0.013413
2810.4127,0.013352
2812.2764,0.013562
2814.1401,0.013890
2816.0037,0.013974
2817.8674,0.013915
2819.7311,0.013725
2821.5947,0.013764
2823.4584,0.013805
2825.3221,0.013761
2827.1857,0.013962
2829.0494,0.014026
2830.9131,0.013955
2832.7768,0.014073
2834.6404,0.014243
2836.5041,0.014005
2838.3678,0.013952
2840.2314,0.014032
2842.0951,0.014016
2843.9588,0.014086
2845.8224,0.014285
2847.6861,0.014454
2849.5498,0.014546
2851.4134,0.014337
2853.2771,0.014491
2855.1408,0.014778
2857.0045,0.014569
2858.8681,0.014485
2860.7318,0.014629
2862.5955,0.014535
2864.4591,0.014536
2866.3228,0.014785
2868.1865,0.014735
2870.0501,0.014530
2871.9138,0.014422
2873.7775,0.014493
2875.6411,0.014631
2877.5048,0.014662
2879.3685,0.014629
2881.2321,0.014521
2883.0958,0.014947
2884.9595,0.015318
2886.8232,0.015058
2888.6868,0.015096
2890.5505,0.015171
2892.4142,0.015054
2894.2778,0.015001
2896.1415,0.014981
2898.0052,0.014893
2899.8688,0.014849
2901.7325,0.014839
2903.5962,0.014985
2905.4598,0.015071
2907.3235,0.015314
2909.1872,0.015507
2911.0509,0.015398
2912.9145,0.015497
2914.7782,0.015434
2916.6419,0.015419
2918.5055,0.015524
2920.3692,0.015337
2922.2329,0.015254
2924.0965,0.015486
2925.9602,0.015948
2927.8239,0.016065
2929.6875,0.015895
2931.5512,0.015721
2933.4149,0.015485
2935.2785,0.015819
2937.1422,0.016224
2939.0059,0.016143
2940.8696,0.016279
2942.7332,0.016568
2944.5969,0.016601
2946.4606,0.016483
2948.3242,0.016443
2950.1879,0.016082
2952.0516,0.015887
2953.9152,0.016390
2955.7789,0.016683
2957.6426,0.016483
2959.5062,0.016755
2961.3699,0.017037
2963.2336,0.016891
2965.0972,0.016633
2966.9609,0.016518
2968.8246,0.016539
2970.6883,0.016838
2972.5519,0.016937
2974.4156,0.016969
2976.2793,0.017429
2978.1429,0.017396
2980.0066,0.017137
2981.8703,0.017356
2983.7339,0.017180
2985.5976,0.016653
2987.4613,0.016852
2989.3249,0.017469
2991.1886,0.017751
2993.0523,0.017534
2994.9160,0.017567
2996.7796,0.017656
2998.6433,0.017386
3000.5070,0.017247
3002.3706,0.017449
3004.2343,0.017821
3006.0980,0.018150
3007.9616,0.017942
3009.8253,0.017541
3011.6890,0.017538
3013.5526,0.017874
3015.4163,0.018717
3017.2800,0.018596
3019.1436,0.018065
3021.0073,0.018120
3022.8710,0.018408
3024.7347,0.018448
3026.5983,0.018374
3028.4620,0.018626
3030.3257,0.018704
3032.1893,0.018825
3034.0530,0.019106
3035.9167,0.019496
3037.7803,0.019688
3039.6440,0.019317
3041.5077,0.019018
3043.3713,0.019174
3045.2350,0.019066
3047.0987,0.019193
3048.9624,0.019684
3050.8260,0.019485
3052.6897,0.019320
3054.5534,0.019833
3056.4170,0.019537
3058.2807,0.019017
3060.1444,0.019658
3062.0080,0.020441
3063.8717,0.020771
3065.7354,0.020880
3067.5990,0.020557
3069.4627,0.020269
3071.3264,0.020449
3073.1900,0.020803
3075.0537,0.020808
3076.9174,0.020502
3078.7811,0.020514
3080.6447,0.021317
3082.5084,0.021806
3084.3721,0.021545
3086.2357,0.021224
3088.0994,0.021046
3089.9631,0.021474
3091.8267,0.022160
3093.6904,0.022197
3095.5541,0.022105
3097.4177,0.022075
3099.2814,0.021989
3101.1451,0.022303
3103.0087,0.022826
3104.8724,0.023320
3106.7361,0.023184
3108.5998,0.022898
3110.4634,0.023045
3112.3271,0.023371
3114.1908,0.023201
3116.0544,0.023025
3117.9181,0.023309
3119.7818,0.023504
3121.6454,0.023361
3123.5091,0.023840
3125.3728,0.024714
3127.2364,0.024551
3129.1001,0.024162
3130.9638,0.024117
3132.8275,0.024129
3134.6911,0.024324
3136.5548,0.024618
3138.4185,0.024847
3140.2821,0.025274
3142.1458,0.025515
3144.0095,0.025235
3145.8731,0.025015
3147.7368,0.025239
3149.6005,0.025256
3151.4641,0.025126
3153.3278,0.025481
3155.1915,0.025958
3157.0551,0.025799
3158.9188,0.025443
3160.7825,0.026000
3162.6462,0.026483
3164.5098,0.026881
3166.3735,0.026744
3168.2372,0.026631
3170.1008,0.027173
3171.9645,0.027193
3173.8282,0.027195
3175.6918,0.027404
3177.5555,0.027458
3179.4192,0.027550
3181.2828,0.027874
3183.1465,0.028053
3185.0102,0.028089
3186.8739,0.028093
3188.7375,0.028193
3190.6012,0.028169
3192.4649,0.028388
3194.3285,0.028770
3196.1922,0.028448
3198.0559,0.028042
3199.9195,0.028686
3201.7832,0.029301
3203.6469,0.029788
3205.5105,0.029394
3207.3742,0.028872
3209.2379,0.029366
3211.1015,0.029528
3212.9652,0.029132
3214.8289,0.029108
3216.6926,0.029675
3218.5562,0.029786
3220.4199,0.029557
3222.2836,0.030436
3224.1472,0.031176
3226.0109,0.031036
3227.8746,0.030658
3229.7382,0.030101
3231.6019,0.030330
3233.4656,0.030019
3235.3292,0.029605
3237.1929,0.030436
3239.0566,0.030950
3240.9202,0.030176
3242.7839,0.029767
3244.6476,0.030353
3246.5113,0.031043
3248.3749,0.030732
3250.2386,0.030802
3252.1023,0.031612
3253.9659,0.032452
3255.8296,0.032680
3257.6933,0.032125
3259.5569,0.031923
3261.4206,0.031956
3263.2843,0.031945
3265.1479,0.031554
3267.0116,0.032040
3268.8753,0.032778
3270.7390,0.032520
3272.6026,0.032284
3274.4663,0.032306
3276.3300,0.032058
3278.1936,0.031573
3280.0573,0.031173
3281.9210,0.031634
3283.7846,0.033134
3285.6483,0.033542
3287.5120,0.032761
3289.3756,0.031983
3291.2393,0.031359
3293.1030,0.031166
3294.9666,0.031601
3296.8303,0.031971
3298.6940,0.032497
3300.5577,0.032369
3302.4213,0.032280
3304.2850,0.032179
3306.1487,0.031901
3308.0123,0.033250
3309.8760,0.033804
3311.7397,0.033327
3313.6033,0.032301
3315.4670,0.032031
3317.3307,0.033502
3319.1943,0.033798
3321.0580,0.033248
3322.9217,0.032943
3324.7854,0.032658
3326.6490,0.032738
3328.5127,0.033089
3330.3764,0.033876
3332.2400,0.034428
3334.1037,0.033705
3335.9674,0.033317
3337.8310,0.033367
3339.6947,0.032851
3341.5584,0.032491
3343.4220,0.033049
3345.2857,0.033196
3347.1494,0.033712
3349.0130,0.033982
3350.8767,0.033992
3352.7404,0.034587
3354.6041,0.034796
3356.4677,0.033899
3358.3314,0.033999
3360.1951,0.034195
3362.0587,0.033590
3363.9224,0.033387
3365.7861,0.033778
3367.6497,0.033249
3369.5134,0.032915
3371.3771,0.034021
3373.2407,0.034980
3375.1044,0.034590
3376.9681,0.033705
3378.8317,0.032241
3380.6954,0.032634
3382.5591,0.033780
3384.4228,0.034483
3386.2864,0.034774
3388.1501,0.034299
3390.0138,0.033777
3391.8774,0.033703
3393.7411,0.033309
3395.6048,0.032216
3397.4684,0.032449
3399.3321,0.033512
3401.1958,0.034383
3403.0594,0.034632
3404.9231,0.034202
3406.7868,0.033943
3408.6505,0.032557
3410.5141,0.031410
3412.3778,0.032271
3414.2415,0.032966
3416.1051,0.033189
3417.9688,0.032153
3419.8325,0.031776
3421.6961,0.032652
3423.5598,0.032325
3425.4235,0.031996
3427.2871,0.032798
3429.1508,0.033047
3431.0145,0.031247
3432.8781,0.031143
3434.7418,0.032257
3436.6055,0.032020
3438.4692,0.031857
3440.3328,0.030857
3442.1965,0.030801
3444.0602,0.031759
3445.9238,0.031291
3447.7875,0.030577
3449.6512,0.030532
3451.5148,0.031215
3453.3785,0.032488
3455.2422,0.032858
3457.1058,0.032314
3458.9695,0.031665
3460.8332,0.030151
3462.6969,0.030026
3464.5605,0.031945
3466.4242,0.030760
3468.2879,0.028877
3470.1515,0.029721
3472.0152,0.031011
3473.8789,0.030215
3475.7425,0.029656
3477.6062,0.030591
3479.4699,0.030881
3481.3335,0.030796
3483.1972,0.031526
3485.0609,0.030194
3486.9245,0.029772
3488.7882,0.030308
3490.6519,0.029020
3492.5156,0.028798
3494.3792,0.030324
3496.2429,0.030905
3498.1066,0.030612
3499.9702,0.030227
3501.8339,0.029522
3503.6976,0.029140
3505.5612,0.029183
3507.4249,0.029122
3509.2886,0.029414
3511.1522,0.029437
3513.0159,0.029726
3514.8796,0.030200
3516.7432,0.029944
3518.6069,0.029635
3520.4706,0.029277
3522.3343,0.028316
3524.1979,0.028098
3526.0616,0.028513
3527.9253,0.027593
3529.7889,0.026572
3531.6526,0.027393
3533.5163,0.028858
3535.3799,0.029763
3537.2436,0.030232
3539.1073,0.029481
3540.9709,0.028828
3542.8346,0.029291
3544.6983,0.029284
3546.5620,0.027653
3548.4256,0.026407
3550.2893,0.027939
3552.1530,0.029773
3554.0166,0.029153
3555.8803,0.028628
3557.7440,0.029869
3559.6076,0.029801
3561.4713,0.029091
3563.3350,0.029563
3565.1986,0.029836
3567.0623,0.029063
3568.9260,0.027575
3570.7896,0.028201
3572.6533,0.029774
3574.5170,0.029414
3576.3807,0.028629
3578.2443,0.028564
3580.1080,0.027540
3581.9717,0.026895
3583.8353,0.027691
3585.6990,0.028608
3587.5627,0.028486
3589.4263,0.027183
3591.2900,0.027085
3593.1537,0.028066
3595.0173,0.027846
3596.8810,0.027121
3598.7447,0.027474
3600.6084,0.027799
3602.4720,0.026550
3604.3357,0.026621
3606.1994,0.027364
3608.0630,0.027256
3609.9267,0.026905
3611.7904,0.026237
3613.6540,0.026091
3615.5177,0.027138
3617.3814,0.026811
3619.2450,0.026270
3621.1087,0.025970
3622.9724,0.025384
3624.8360,0.025971
3626.6997,0.027951
3628.5634,0.028375
3630.4271,0.025280
3632.2907,0.022457
3634.1544,0.023316
3636.0181,0.024564
3637.8817,0.024401
3639.7454,0.023652
3641.6091,0.023203
3643.4727,0.023264
3645.3364,0.024702
3647.2001,0.025587
3649.0637,0.023459
3650.9274,0.020836
3652.7911,0.020598
3654.6547,0.022011
3656.5184,0.022327
3658.3821,0.021067
3660.2458,0.021122
3662.1094,0.022579
3663.9731,0.023019
3665.8368,0.022369
3667.7004,0.022219
3669.5641,0.022055
3671.4278,0.020916
3673.2914,0.020637
3675.1551,0.020658
3677.0188,0.019359
3678.8824,0.018432
3680.7461,0.018130
3682.6098,0.018369
3684.4735,0.018926
3686.3371,0.018340
3688.2008,0.018125
3690.0645,0.017605
3691.9281,0.016267
3693.7918,0.015694
3695.6555,0.016257
3697.5191,0.016870
3699.3828,0.016810
3701.2465,0.016269
3703.1101,0.015592
3704.9738,0.015293
3706.8375,0.016129
3708.7011,0.017075
3710.5648,0.016826
3712.4285,0.015710
3714.2922,0.014739
3716.1558,0.015185
3718.0195,0.016149
3719.8832,0.015853
3721.7468,0.015148
3723.6105,0.014852
3725.4742,0.014097
3727.3378,0.013774
3729.2015,0.014068
3731.0652,0.014628
3732.9288,0.015008
3734.7925,0.014723
3736.6562,0.013357
3738.5199,0.011347
3740.3835,0.011680
3742.2472,0.013234
3744.1109,0.013905
3745.9745,0.013006
3747.8382,0.012913
3749.7019,0.014229
3751.5655,0.014444
3753.4292,0.012513
3755.2929,0.011759
3757.1565,0.012657
3759.0202,0.012763
3760.8839,0.012603
3762.7475,0.012713
3764.6112,0.013453
3766.4749,0.013373
3768.3386,0.013262
3770.2022,0.013498
3772.0659,0.013195
3773.9296,0.013452
3775.7932,0.013678
3777.6569,0.013775
3779.5206,0.013919
3781.3842,0.013563
3783.2479,0.013758
3785.1116,0.013670
3786.9752,0.012981
3788.8389,0.013288
3790.7026,0.013541
3792.5662,0.013215
3794.4299,0.013668
3796.2936,0.014828
3798.1573,0.014815
3800.0209,0.014786
3801.8846,0.015131
3803.7483,0.013947
3805.6119,0.013701
3807.4756,0.013346
3809.3393,0.012275
3811.2029,0.012876
3813.0666,0.013754
3814.9303,0.014651
3816.7939,0.015142
3818.6576,0.014894
3820.5213,0.015110
3822.3850,0.014540
3824.2486,0.013606
3826.1123,0.013366
3827.9760,0.013336
3829.8396,0.013875
3831.7033,0.014229
3833.5670,0.013805
3835.4306,0.014308
3837.2943,0.015123
3839.1580,0.014398
3841.0216,0.013212
3842.8853,0.012984
3844.7490,0.013137
3846.6126,0.012967
3848.4763,0.013476
3850.3400,0.015655
3852.2037,0.016515
3854.0673,0.014089
3855.9310,0.011493
3857.7947,0.011810
3859.6583,0.013680
3861.5220,0.015030
3863.3857,0.014608
3865.2493,0.013723
3867.1130,0.013416
3868.9767,0.014217
3870.8403,0.014594
3872.7040,0.014791
3874.5677,0.014451
3876.4314,0.014365
3878.2950,0.014773
3880.1587,0.015270
3882.0224,0.014815
3883.8860,0.014065
3885.7497,0.013813
3887.6134,0.013386
3889.4770,0.013839
3891.3407,0.014691
3893.2044,0.014625
3895.0680,0.014115
3896.9317,0.014708
3898.7954,0.015638
3900.6590,0.015134
3902.5227,0.014411
3904.3864,0.013965
3906.2501,0.013825
3908.1137,0.013780
3909.9774,0.013996
3911.8411,0.014669
3913.7047,0.014706
3915.5684,0.014865
3917.4321,0.015034
3919.2957,0.015268
3921.1594,0.015330
3923.0231,0.014635
3924.8867,0.014819
3926.7504,0.015449
3928.6141,0.015259
3930.4777,0.014584
3932.3414,0.014267
3934.2051,0.014304
3936.0688,0.014584
3937.9324,0.014798
3939.7961,0.015019
3941.6598,0.014989
3943.5234,0.015006
3945.3871,0.015166
3947.2508,0.015561
3949.1144,0.015471
3950.9781,0.015061
3952.8418,0.014656
3954.7054,0.014729
3956.5691,0.014815
3958.4328,0.014672
3960.2965,0.014189
3962.1601,0.014541
3964.0238,0.014973
3965.8875,0.014733
3967.7511,0.014715
3969.6148,0.015208
3971.4785,0.015386
3973.3421,0.015648
3975.2058,0.015678
3977.0695,0.015516
3978.9331,0.015660
3980.7968,0.015162
3982.6605,0.015228
3984.5241,0.015257
3986.3878,0.015628
3988.2515,0.015723
3990.1152,0.015175
3991.9788,0.014956
3993.8425,0.015307
3995.7062,0.015253
3997.5698,0.014774
3999.4335,0.014449
4001.2972,0.014963
4003.1608,0.014944
4005.0245,0.014869
4006.8882,0.015297
4008.7518,0.015824
4010.6155,0.015793
4012.4792,0.016022
4014.3429,0.016226
4016.2065,0.015241
4018.0702,0.014644
4019.9339,0.014655
4021.7975,0.014423
4023.6612,0.014761
4025.5249,0.015275
4027.3885,0.014841
4029.2522,0.014738
4031.1159,0.015245
4032.9795,0.015565
4034.8432,0.015779
4036.7069,0.015696
4038.5705,0.015041
4040.4342,0.015029
4042.2979,0.015141
4044.1616,0.014895
4046.0252,0.014959
4047.8889,0.015121
4049.7526,0.015148
4051.6162,0.015103
4053.4799,0.014950
4055.3436,0.015044
4057.2072,0.015683
4059.0709,0.015739
4060.9346,0.015586
4062.7982,0.015841
4064.6619,0.015470
4066.5256,0.015018
4068.3892,0.014746
4070.2529,0.015078
4072.1166,0.015530
4073.9803,0.015640
4075.8439,0.015606
4077.7076,0.015229
4079.5713,0.015300
4081.4349,0.015810
4083.2986,0.016002
4085.1623,0.015719
4087.0259,0.015820
4088.8896,0.016383
4090.7533,0.016028
4092.6169,0.015624
4094.4806,0.016207
4096.3443,0.016214
4098.2080,0.015982
4100.0716,0.016069
