Wavenumber,Intensity
650.4205,0.002480
652.2841,0.002246
654.1478,0.002493
656.0115,0.002172
657.8751,0.001694
659.7388,0.003388
661.6025,0.002880
663.4661,0.000718
665.3298,0.001639
667.1935,0.005118
669.0571,0.004456
670.9208,0.002334
672.7845,0.001930
674.6481,0.002218
676.5118,0.002505
678.3755,0.002300
680.2392,0.002532
682.1028,0.002706
683.9665,0.003071
685.8302,0.002936
687.6938,0.002468
689.5575,0.003184
691.4212,0.003946
693.2848,0.004571
695.1485,0.005028
697.0122,0.004376
698.8758,0.002825
700.7395,0.001635
702.6032,0.001699
704.4669,0.002205
706.3305,0.002179
708.1942,0.002097
710.0579,0.001664
711.9215,0.001282
713.7852,0.001457
715.6489,0.002019
717.5125,0.002456
719.3762,0.002299
721.2399,0.001772
723.1035,0.001474
724.9672,0.001622
726.8309,0.001931
728.6945,0.001966
730.5582,0.001764
732.4219,0.001671
734.2856,0.001995
736.1492,0.002223
738.0129,0.002142
739.8766,0.002016
741.7402,0.001817
743.6039,0.001798
745.4676,0.001951
747.3312,0.002330
749.1949,0.002486
751.0586,0.002221
752.9222,0.002064
754.7859,0.002365
756.6496,0.002306
758.5132,0.002379
760.3769,0.002546
762.2406,0.002827
764.1043,0.003335
765.9679,0.003568
767.8316,0.003836
769.6953,0.004354
771.5589,0.005104
773.4226,0.006211
775.2863,0.007382
777.1499,0.008625
779.0136,0.009779
780.8773,0.009940
782.7409,0.009231
784.6046,0.008294
786.4683,0.007303
788.3320,0.006810
790.1956,0.006991
792.0593,0.007603
793.9230,0.008641
795.7866,0.009938
797.6503,0.010707
799.5140,0.010375
801.3776,0.009485
803.2413,0.008258
805.1050,0.006554
806.9686,0.005105
808.8323,0.004097
810.6960,0.002958
812.5596,0.002024
814.4233,0.001826
816.2870,0.001612
818.1507,0.001334
820.0143,0.001096
821.8780,0.000838
823.7417,0.000837
825.6053,0.001096
827.4690,0.001179
829.3327,0.000988
831.1963,0.000885
833.0600,0.000820
834.9237,0.000930
836.7873,0.001018
838.6510,0.000857
840.5147,0.000861
842.3784,0.000964
844.2420,0.001020
846.1057,0.000966
847.9694,0.000943
849.8330,0.001109
851.6967,0.001345
853.5604,0.001321
855.4240,0.001183
857.2877,0.001156
859.1514,0.001087
861.0150,0.001108
862.8787,0.001156
864.7424,0.001181
866.6060,0.001255
868.4697,0.001176
870.3334,0.001098
872.1971,0.001260
874.0607,0.001437
875.9244,0.001472
877.7881,0.001517
879.6517,0.001471
881.5154,0.001391
883.3791,0.001476
885.2427,0.001534
887.1064,0.001417
888.9701,0.001306
890.8337,0.001324
892.6974,0.001504
894.5611,0.001707
896.4247,0.001694
898.2884,0.001519
900.1521,0.001551
902.0158,0.001731
903.8794,0.001889
905.7431,0.001840
907.6068,0.001569
909.4704,0.001564
911.3341,0.001763
913.1978,0.001916
915.0614,0.002067
916.9251,0.002029
918.7888,0.002001
920.6524,0.001985
922.5161,0.001884
924.3798,0.001883
926.2435,0.002101
928.1071,0.002352
929.9708,0.002452
931.8345,0.002377
933.6981,0.002314
935.5618,0.002398
937.4255,0.002536
939.2891,0.002717
941.1528,0.002855
943.0165,0.002843
944.8801,0.002948
946.7438,0.003091
948.6075,0.003117
950.4711,0.003191
952.3348,0.003235
954.1985,0.003173
956.0622,0.003146
957.9258,0.003171
959.7895,0.003194
961.6532,0.003228
963.5168,0.003377
965.3805,0.003552
967.2442,0.003587
969.1078,0.003585
970.9715,0.003620
972.8352,0.003792
974.6988,0.003951
976.5625,0.003945
978.4262,0.004065
980.2899,0.004251
982.1535,0.004374
984.0172,0.004519
985.8809,0.004663
987.7445,0.004786
989.6082,0.004915
991.4719,0.005031
993.3355,0.005198
995.1992,0.005413
997.0629,0.005585
998.9265,0.005721
1000.7902,0.005876
1002.6539,0.006108
1004.5175,0.006317
1006.3812,0.006420
1008.2449,0.006521
1010.1086,0.006668
1011.9722,0.006848
1013.8359,0.007038
1015.6996,0.007270
1017.5632,0.007538
1019.4269,0.007895
1021.2906,0.008215
1023.1542,0.008449
1025.0179,0.008675
1026.8816,0.008967
1028.7452,0.009379
1030.6089,0.009844
1032.4726,0.010258
1034.3362,0.010647
1036.1999,0.011125
1038.0636,0.011615
1039.9273,0.012039
1041.7909,0.012505
1043.6546,0.013053
1045.5183,0.013613
1047.3819,0.014167
1049.2456,0.014802
1051.1093,0.015503
1052.9729,0.016213
1054.8366,0.016921
1056.7003,0.017772
1058.5639,0.018787
1060.4276,0.019811
1062.2913,0.020805
1064.1550,0.021840
1066.0186,0.022882
1067.8823,0.023726
1069.7460,0.024510
1071.6096,0.025414
1073.4733,0.026386
1075.3370,0.027478
1077.2006,0.028370
1079.0643,0.028932
1080.9280,0.029310
1082.7916,0.029402
1084.6553,0.029315
1086.5190,0.029152
1088.3826,0.028778
1090.2463,0.028241
1092.1100,0.027616
1093.9737,0.026988
1095.8373,0.026332
1097.7010,0.025631
1099.5647,0.025005
1101.4283,0.024310
1103.2920,0.023510
1105.1557,0.022767
1107.0193,0.022071
1108.8830,0.021413
1110.7467,0.020770
1112.6103,0.020112
1114.4740,0.019435
1116.3377,0.018796
1118.2014,0.018260
1120.0650,0.017787
1121.9287,0.017178
1123.7924,0.016480
1125.6560,0.015855
1127.5197,0.015350
1129.3834,0.014893
1131.2470,0.014432
1133.1107,0.013950
1134.9744,0.013451
1136.8380,0.012985
1138.7017,0.012621
1140.5654,0.012248
1142.4290,0.011856
1144.2927,0.011507
1146.1564,0.011136
1148.0201,0.010801
1149.8837,0.010563
1151.7474,0.010334
1153.6111,0.010103
1155.4747,0.009959
1157.3384,0.009958
1159.2021,0.010149
1161.0657,0.010549
1162.9294,0.010786
1164.7931,0.010684
1166.6567,0.010397
1168.5204,0.010022
1170.3841,0.009600
1172.2477,0.009252
1174.1114,0.008970
1175.9751,0.008690
1177.8388,0.008513
1179.7024,0.008448
1181.5661,0.008376
1183.4298,0.008278
1185.2934,0.008223
1187.1571,0.008150
1189.0208,0.008091
1190.8844,0.008140
1192.7481,0.008099
1194.6118,0.007852
1196.4754,0.007654
1198.3391,0.007540
1200.2028,0.007328
1202.0665,0.007096
1203.9301,0.006917
1205.7938,0.006626
1207.6575,0.006277
1209.5211,0.005953
1211.3848,0.005593
1213.2485,0.005161
1215.1121,0.004646
1216.9758,0.004218
1218.8395,0.003876
1220.7031,0.003388
1222.5668,0.002915
1224.4305,0.002672
1226.2941,0.002503
1228.1578,0.002269
1230.0215,0.002114
1231.8852,0.002076
1233.7488,0.001903
1235.6125,0.001663
1237.4762,0.001612
1239.3398,0.001561
1241.2035,0.001400
1243.0672,0.001367
1244.9308,0.001370
1246.7945,0.001302
1248.6582,0.001236
1250.5218,0.001181
1252.3855,0.001046
1254.2492,0.000950
1256.1129,0.000925
1257.9765,0.000893
1259.8402,0.000853
1261.7039,0.000917
1263.5675,0.000903
1265.4312,0.000805
1267.2949,0.000798
1269.1585,0.000849
1271.0222,0.000872
1272.8859,0.000849
1274.7495,0.000757
1276.6132,0.000660
1278.4769,0.000636
1280.3405,0.000644
1282.2042,0.000637
1284.0679,0.000535
1285.9316,0.000453
1287.7952,0.000432
1289.6589,0.000462
1291.5226,0.000468
1293.3862,0.000406
1295.2499,0.000430
1297.1136,0.000463
1298.9772,0.000424
1300.8409,0.000370
1302.7046,0.000329
1304.5682,0.000309
1306.4319,0.000333
1308.2956,0.000319
1310.1592,0.000318
1312.0229,0.000326
1313.8866,0.000361
1315.7503,0.000493
1317.6139,0.000533
1319.4776,0.000467
1321.3413,0.000363
1323.2049,0.000243
1325.0686,0.000135
1326.9323,0.000151
1328.7959,0.000304
1330.6596,0.000345
1332.5233,0.000203
1334.3869,0.000164
1336.2506,0.000296
1338.1143,0.000578
1339.9780,0.000669
1341.8416,0.000505
1343.7053,0.000257
1345.5690,0.000233
1347.4326,0.000287
1349.2963,0.000225
1351.1600,0.000176
1353.0236,0.000115
1354.8873,0.000220
1356.7510,0.000274
1358.6146,0.000212
1360.4783,0.000307
1362.3420,0.000377
1364.2056,0.000377
1366.0693,0.000392
1367.9330,0.000333
1369.7967,0.000284
1371.6603,0.000231
1373.5240,0.000424
1375.3877,0.000610
1377.2513,0.000444
1379.1150,0.000117
1380.9787,0.000220
1382.8423,0.000079
1384.7060,0.000130
1386.5697,0.000188
1388.4333,0.000268
1390.2970,0.000224
1392.1607,0.000019
1394.0244,0.000063
1395.8880,0.000480
1397.7517,0.000609
1399.6154,0.000313
1401.4790,0.000530
1403.3427,0.000280
1405.2064,0.000332
1407.0700,0.000344
1408.9337,0.000148
1410.7974,0.000125
1412.6610,0.000277
1414.5247,0.000116
1416.3884,0.000090
1418.2520,0.000237
1420.1157,0.000723
1421.9794,0.000960
1423.8431,0.000395
1425.7067,0.000468
1427.5704,0.000319
1429.4341,0.000304
1431.2977,0.000490
1433.1614,0.000253
1435.0251,0.000191
1436.8887,0.000413
1438.7524,0.000870
1440.6161,0.000299
1442.4797,0.000080
1444.3434,0.000125
1446.2071,0.000191
1448.0707,0.000501
1449.9344,0.000714
1451.7981,0.000402
1453.6618,0.000347
1455.5254,0.000351
1457.3891,0.000709
1459.2528,0.001519
1461.1164,0.000587
1462.9801,0.000065
1464.8438,0.000178
1466.7074,0.000800
1468.5711,0.000164
1470.4348,-0.000163
1472.2984,-0.000150
1474.1621,0.001075
1476.0258,0.000936
1477.8895,0.000714
1479.7531,0.000603
1481.6168,0.000340
1483.4805,0.000411
1485.3441,0.000212
1487.2078,0.000229
1489.0715,0.000926
1490.9351,0.001096
1492.7988,0.000837
1494.6625,0.000260
1496.5261,0.000294
1498.3898,0.000920
1500.2535,0.000654
1502.1171,0.000114
1503.9808,-0.000236
1505.8445,-0.000184
1507.7082,0.001820
1509.5718,0.002096
1511.4355,0.000990
1513.2992,0.000809
1515.1628,0.000724
1517.0265,0.000558
1518.8902,0.001141
1520.7538,0.000428
1522.6175,0.000681
1524.4812,0.000902
1526.3448,0.000828
1528.2085,0.001141
1530.0722,0.000551
1531.9359,0.000745
1533.7995,0.001111
1535.6632,0.001241
1537.5269,-0.000248
1539.3905,-0.000685
1541.2542,0.001385
1543.1179,0.001631
1544.9815,0.001094
1546.8452,0.001234
1548.7089,0.000702
1550.5725,0.000418
1552.4362,0.000695
1554.2999,0.000068
1556.1635,0.000438
1558.0272,-0.000106
1559.8909,0.001543
1561.7546,0.001984
1563.6182,0.000522
1565.4819,0.000370
1567.3456,0.000767
1569.2092,0.000685
1571.0729,0.001113
1572.9366,0.000470
1574.8002,-0.000453
1576.6639,0.000182
1578.5276,0.001183
1580.3912,0.000454
1582.2549,0.000344
1584.1186,0.000473
1585.9822,0.000393
1587.8459,0.000287
1589.7096,0.000232
1591.5733,0.000401
1593.4369,0.000341
1595.3006,0.000485
1597.1643,0.000522
1599.0279,0.000447
1600.8916,0.000412
1602.7553,0.000504
1604.6189,0.000332
1606.4826,0.000400
1608.3463,0.000533
1610.2099,0.000736
1612.0736,0.000470
1613.9373,0.000261
1615.8010,-0.000232
1617.6646,0.000832
1619.5283,0.001113
1621.3920,0.000170
1623.2556,0.000352
1625.1193,0.001156
1626.9830,0.000624
1628.8466,0.000675
1630.7103,0.000786
1632.5740,0.000214
1634.4376,-0.000348
1636.3013,0.000771
1638.1650,0.001529
1640.0286,0.000618
1641.8923,0.000567
1643.7560,0.000327
1645.6197,0.000212
1647.4833,0.001297
1649.3470,0.001307
1651.2107,-0.000068
1653.0743,-0.000011
1654.9380,0.002420
1656.8017,0.001162
1658.6653,0.000223
1660.5290,0.000236
1662.3927,0.000267
1664.2563,0.000931
1666.1200,0.000665
1667.9837,0.000285
1669.8474,0.000595
1671.7110,0.001021
1673.5747,0.000707
1675.4384,0.000766
1677.3020,0.001336
1679.1657,0.000469
1681.0294,0.000593
1682.8930,0.000523
1684.7567,0.001007
1686.6204,0.001920
1688.4840,0.000793
1690.3477,0.000821
1692.2114,0.000499
1694.0750,0.000001
1695.9387,0.000279
1697.8024,0.001884
1699.6661,0.000064
1701.5297,0.001791
1703.3934,0.001541
1705.2571,0.000319
1707.1207,0.000848
1708.9844,0.000738
1710.8481,0.000682
1712.7117,0.000625
1714.5754,0.000555
1716.4391,0.000683
1718.3027,0.000735
1720.1664,0.001367
1722.0301,0.000644
1723.8937,0.000492
1725.7574,0.000538
1727.6211,0.000514
1729.4848,0.000415
1731.3484,0.000626
1733.2121,0.000351
1735.0758,0.001543
1736.9394,0.001568
1738.8031,0.000125
1740.6668,0.000871
1742.5304,0.000870
1744.3941,0.000764
1746.2578,0.000593
1748.1214,0.000469
1749.9851,0.001219
1751.8488,0.001627
1753.7125,0.001433
1755.5761,0.000553
1757.4398,0.000819
1759.3035,0.000922
1761.1671,0.000409
1763.0308,0.001016
1764.8945,0.000930
1766.7581,0.000318
1768.6218,0.000539
1770.4855,0.000697
1772.3491,0.000400
1774.2128,0.001092
1776.0765,0.000597
1777.9401,0.000653
1779.8038,0.000535
1781.6675,0.000865
1783.5312,0.000801
1785.3948,0.000548
1787.2585,0.000745
1789.1222,0.000587
1790.9858,0.000368
1792.8495,0.001043
1794.7132,0.001383
1796.5768,0.000801
1798.4405,0.000712
1800.3042,0.000705
1802.1678,0.000945
1804.0315,0.000974
1805.8952,0.000558
1807.7589,0.000428
1809.6225,0.000559
1811.4862,0.000737
1813.3499,0.000738
1815.2135,0.000500
1817.0772,0.000452
1818.9409,0.000492
1820.8045,0.000463
1822.6682,0.000509
1824.5319,0.000596
1826.3955,0.001092
1828.2592,0.000855
1830.1229,0.000792
1831.9865,0.001216
1833.8502,0.000673
1835.7139,0.000568
1837.5776,0.000441
1839.4412,0.000455
1841.3049,0.000345
1843.1686,0.000349
1845.0322,0.001315
1846.8959,0.001529
1848.7596,0.000837
1850.6232,0.001013
1852.4869,0.000921
1854.3506,0.000786
1856.2142,0.000684
1858.0779,0.000803
1859.9416,0.000614
1861.8052,0.000617
1863.6689,0.000586
1865.5326,0.000680
1867.3963,0.000678
1869.2599,0.000927
1871.1236,0.001067
1872.9873,0.000920
1874.8509,0.000759
1876.7146,0.000895
1878.5783,0.000874
1880.4419,0.000990
1882.3056,0.000920
1884.1693,0.000774
1886.0329,0.000886
1887.8966,0.000817
1889.7603,0.000840
1891.6240,0.001156
1893.4876,0.000823
1895.3513,0.000832
1897.2150,0.000749
1899.0786,0.000739
1900.9423,0.000618
1902.8060,0.000706
1904.6696,0.000658
1906.5333,0.000670
1908.3970,0.000711
1910.2606,0.000721
1912.1243,0.000743
1913.9880,0.000858
1915.8516,0.000736
1917.7153,0.000806
1919.5790,0.001074
1921.4427,0.000886
1923.3063,0.001167
1925.1700,0.000919
1927.0337,0.000481
1928.8973,0.000801
1930.7610,0.000909
1932.6247,0.000526
1934.4883,0.000355
1936.3520,0.000898
1938.2157,0.001031
1940.0793,0.000464
1941.9430,0.000092
1943.8067,0.001010
1945.6704,0.001259
1947.5340,0.000806
1949.3977,0.000351
1951.2614,0.000431
1953.1250,0.000410
1954.9887,0.000543
1956.8524,0.000732
1958.7160,0.000808
1960.5797,0.000663
1962.4434,0.000506
1964.3070,0.000461
1966.1707,0.000283
1968.0344,-0.000092
1969.8980,0.000292
1971.7617,0.000893
1973.6254,0.000555
1975.4891,0.000050
1977.3527,0.000800
1979.2164,0.001566
1981.0801,0.001010
1982.9437,0.000434
1984.8074,0.000756
1986.6711,0.000643
1988.5347,0.000900
1990.3984,0.001071
1992.2621,0.000904
1994.1257,0.000634
1995.9894,0.000998
1997.8531,0.001739
1999.7167,0.001831
2001.5804,0.000512
2003.4441,-0.001129
2005.3078,-0.000067
2007.1714,0.001325
2009.0351,0.000647
2010.8988,0.000534
2012.7624,0.000609
2014.6261,0.000265
2016.4898,0.000955
2018.3534,0.002011
2020.2171,0.001827
2022.0808,0.001137
2023.9444,0.001096
2025.8081,0.000551
2027.6718,-0.000580
2029.5355,-0.000017
2031.3991,0.000357
2033.2628,0.000182
2035.1265,0.000773
2036.9901,0.001112
2038.8538,0.000961
2040.7175,0.001021
2042.5811,0.001067
2044.4448,0.000558
2046.3085,0.000191
2048.1721,0.000719
2050.0358,0.001467
2051.8995,0.001865
2053.7631,0.001792
2055.6268,0.001551
2057.4905,0.000981
2059.3542,0.000872
2061.2178,0.000941
2063.0815,0.000759
2064.9452,0.000452
2066.8088,0.000292
2068.6725,0.000084
2070.5362,0.000723
2072.3998,0.001366
2074.2635,0.001272
2076.1272,0.000960
2077.9908,0.001024
2079.8545,0.000825
2081.7182,0.000734
2083.5819,0.000647
2085.4455,0.000635
2087.3092,0.000813
2089.1729,0.000562
2091.0365,0.000523
2092.9002,0.000524
2094.7639,0.000171
2096.6275,0.000614
2098.4912,0.000977
2100.3549,0.001015
2102.2185,0.000848
2104.0822,0.000668
2105.9459,0.000622
2107.8095,0.000873
2109.6732,0.001024
2111.5369,0.000803
2113.4006,0.000754
2115.2642,0.001002
2117.1279,0.000876
2118.9916,0.000544
2120.8552,0.000309
2122.7189,0.000618
2124.5826,0.000761
2126.4462,0.000648
2128.3099,0.000595
2130.1736,0.000775
2132.0372,0.000600
2133.9009,0.000446
2135.7646,0.000049
2137.6282,-0.000117
2139.4919,0.000090
2141.3556,0.000605
2143.2193,0.000603
2145.0829,0.000689
2146.9466,0.000712
2148.8103,0.000118
2150.6739,-0.000586
2152.5376,-0.000309
2154.4013,-0.000032
2156.2649,0.000032
2158.1286,-0.000066
2159.9923,-0.000231
2161.8559,0.000270
2163.7196,0.000427
2165.5833,0.000901
2167.4470,0.001706
2169.3106,0.001703
2171.1743,0.002033
2173.0380,0.001040
2174.9016,0.000925
2176.7653,0.001065
2178.6290,0.001511
2180.4926,0.001954
2182.3563,0.000700
2184.2200,-0.000379
2186.0836,0.000345
2187.9473,0.000584
2189.8110,0.000645
2191.6746,0.000621
2193.5383,0.000284
2195.4020,0.000335
2197.2657,0.000710
2199.1293,0.000624
2200.9930,0.000798
2202.8567,0.001509
2204.7203,0.001510
2206.5840,0.000666
2208.4477,0.000185
2210.3113,0.000686
2212.1750,0.001304
2214.0387,0.001105
2215.9023,0.001004
2217.7660,0.000784
2219.6297,0.000904
2221.4934,0.001406
2223.3570,0.001107
2225.2207,0.000477
2227.0844,0.000403
2228.9480,0.000616
2230.8117,0.001171
2232.6754,0.001390
2234.5390,0.000796
2236.4027,0.000581
2238.2664,0.000836
2240.1300,0.000886
2241.9937,0.000834
2243.8574,0.001231
2245.7210,0.001667
2247.5847,0.001507
2249.4484,0.001063
2251.3121,0.000644
2253.1757,0.000513
2255.0394,0.000677
2256.9031,0.001033
2258.7667,0.001210
2260.6304,0.001092
2262.4941,0.000881
2264.3577,0.000861
2266.2214,0.000786
2268.0851,0.000629
2269.9487,0.000568
2271.8124,0.000735
2273.6761,0.000936
2275.5397,0.001002
2277.4034,0.000797
2279.2671,0.000883
2281.1308,0.001232
2282.9944,0.001288
2284.8581,0.001098
2286.7218,0.001137
2288.5854,0.000943
2290.4491,0.001027
2292.3128,0.001502
2294.1764,0.001660
2296.0401,0.001283
2297.9038,0.001343
2299.7674,0.001643
2301.6311,0.001455
2303.4948,0.001458
2305.3585,0.001839
2307.2221,0.002152
2309.0858,0.002330
2310.9495,0.002410
2312.8131,0.002593
2314.6768,0.002731
2316.5405,0.002889
2318.4041,0.002958
2320.2678,0.003190
2322.1315,0.003587
2323.9951,0.003994
2325.8588,0.004358
2327.7225,0.004427
2329.5861,0.004187
2331.4498,0.004158
2333.3135,0.004073
2335.1772,0.004197
2337.0408,0.004534
2338.9045,0.004420
2340.7682,0.004442
2342.6318,0.004757
2344.4955,0.004600
2346.3592,0.003932
2348.2228,0.002778
2350.0865,0.002462
2351.9502,0.003212
2353.8138,0.003437
2355.6775,0.004201
2357.5412,0.005716
2359.4049,0.006119
2361.2685,0.005778
2363.1322,0.005865
2364.9959,0.005970
2366.8595,0.005260
2368.7232,0.004406
2370.5869,0.004220
2372.4505,0.004352
2374.3142,0.003722
2376.1779,0.003052
2378.0415,0.002425
2379.9052,0.001822
2381.7689,0.001504
2383.6325,0.001300
2385.4962,0.000892
2387.3599,0.000682
2389.2236,0.000588
2391.0872,0.000610
2392.9509,0.000725
2394.8146,0.000915
2396.6782,0.000887
2398.5419,0.000593
2400.4056,0.000367
2402.2692,0.000448
2404.1329,0.000385
2405.9966,0.000322
2407.8602,0.000386
2409.7239,0.000368
2411.5876,0.000614
2413.4512,0.000976
2415.3149,0.000753
2417.1786,0.000243
2419.0423,0.000340
2420.9059,0.000745
2422.7696,0.000643
2424.6333,0.000579
2426.4969,0.000384
2428.3606,0.000559
2430.2243,0.000867
2432.0879,0.000788
2433.9516,0.000579
2435.8153,0.000635
2437.6789,0.000539
2439.5426,0.000528
2441.4063,0.000807
2443.2700,0.000580
2445.1336,0.000343
2446.9973,0.000348
2448.8610,0.000620
2450.7246,0.000632
2452.5883,0.000306
2454.4520,0.000351
2456.3156,0.000551
2458.1793,0.000794
2460.0430,0.000853
2461.9066,0.000958
2463.7703,0.000885
2465.6340,0.000892
2467.4976,0.000756
2469.3613,0.000543
2471.2250,0.000366
2473.0887,0.000501
2474.9523,0.000687
2476.8160,0.000786
2478.6797,0.000704
2480.5433,0.000482
2482.4070,0.000444
2484.2707,0.000226
2486.1343,0.000327
2487.9980,0.000596
2489.8617,0.000631
2491.7253,0.000931
2493.5890,0.000980
2495.4527,0.000771
2497.3164,0.000593
2499.1800,0.000477
2501.0437,0.000531
2502.9074,0.000831
2504.7710,0.001011
2506.6347,0.001104
2508.4984,0.000924
2510.3620,0.000924
2512.2257,0.000786
2514.0894,0.000713
2515.9530,0.000799
2517.8167,0.000560
2519.6804,0.000698
2521.5440,0.000866
2523.4077,0.000725
2525.2714,0.000501
2527.1351,0.000718
2528.9987,0.001128
2530.8624,0.001141
2532.7261,0.001271
2534.5897,0.000868
2536.4534,0.000463
2538.3171,0.000587
2540.1807,0.000689
2542.0444,0.000904
2543.9081,0.000896
2545.7717,0.000299
2547.6354,0.000097
2549.4991,0.000439
2551.3627,0.001119
2553.2264,0.001178
2555.0901,0.000974
2556.9538,0.000942
2558.8174,0.000952
2560.6811,0.001014
2562.5448,0.001057
2564.4084,0.000765
2566.2721,0.000301
2568.1358,-0.000134
2569.9994,-0.000069
2571.8631,0.000405
2573.7268,0.000417
2575.5904,0.000262
2577.4541,0.000816
2579.3178,0.001002
2581.1815,0.000755
2583.0451,0.000700
2584.9088,0.000910
2586.7725,0.000891
2588.6361,0.001019
2590.4998,0.000969
2592.3635,0.000562
2594.2271,0.000462
2596.0908,0.000686
2597.9545,0.000735
2599.8181,0.000699
2601.6818,0.000815
2603.5455,0.000710
2605.4091,0.000644
2607.2728,0.000698
2609.1365,0.000393
2611.0002,0.000468
2612.8638,0.000895
2614.7275,0.001017
2616.5912,0.000690
2618.4548,0.000412
2620.3185,0.000644
2622.1822,0.001117
2624.0458,0.000920
2625.9095,0.000397
2627.7732,0.000520
2629.6368,0.000822
2631.5005,0.000619
2633.3642,0.000405
2635.2279,0.000509
2637.0915,0.000606
2638.9552,0.000760
2640.8189,0.000996
2642.6825,0.001012
2644.5462,0.000880
2646.4099,0.000729
2648.2735,0.000572
2650.1372,0.000486
2652.0009,0.000675
2653.8645,0.000777
2655.7282,0.000654
2657.5919,0.000608
2659.4555,0.000677
2661.3192,0.000605
2663.1829,0.000613
2665.0466,0.000653
2666.9102,0.000492
2668.7739,0.000479
2670.6376,0.000533
2672.5012,0.000539
2674.3649,0.000481
2676.2286,0.000223
2678.0922,0.000042
2679.9559,0.000123
2681.8196,0.000224
2683.6832,0.000266
2685.5469,0.000276
2687.4106,0.000435
2689.2742,0.000582
2691.1379,0.000423
2693.0016,0.000235
2694.8653,0.000224
2696.7289,0.000331
2698.5926,0.000474
2700.4563,0.000466
2702.3199,0.000340
2704.1836,0.000480
2706.0473,0.000549
2707.9109,0.000641
2709.7746,0.000582
2711.6383,0.000190
2713.5019,-0.000019
2715.3656,0.000157
2717.2293,0.000427
2719.0930,0.000503
2720.9566,0.000433
2722.8203,0.000581
2724.6840,0.000675
2726.5476,0.000456
2728.4113,0.000267
2730.2750,0.000266
2732.1386,0.000256
2734.0023,0.000072
2735.8660,-0.000079
2737.7296,-0.000093
2739.5933,0.000005
2741.4570,0.000349
2743.3206,0.000454
2745.1843,0.000303
2747.0480,0.000389
2748.9117,0.000509
2750.7753,0.000184
2752.6390,-0.000118
2754.5027,-0.000124
2756.3663,0.000230
2758.2300,0.000484
2760.0937,0.000245
2761.9573,-0.000024
2763.8210,0.000132
2765.6847,0.000273
2767.5483,0.000212
2769.4120,0.000184
2771.2757,0.000269
2773.1394,0.000436
2775.0030,0.000491
2776.8667,0.000193
2778.7304,0.000076
2780.5940,0.000046
2782.4577,0.000177
2784.3214,0.000205
2786.1850,-0.000102
2788.0487,-0.000042
2789.9124,0.000388
2791.7760,0.000529
2793.6397,0.000346
2795.5034,0.000082
2797.3670,0.000110
2799.2307,0.000083
2801.0944,-0.000046
2802.9581,-0.000030
2804.8217,0.000108
2806.6854,-0.000001
2808.5491,0.000050
2810.4127,0.000407
2812.2764,0.000410
2814.1401,0.000006
2816.0037,-0.000170
2817.8674,0.000075
2819.7311,0.000395
2821.5947,0.000291
2823.4584,0.000078
2825.3221,0.000095
2827.1857,0.000139
2829.0494,0.000165
2830.9131,0.000192
2832.7768,0.000247
2834.6404,0.000239
2836.5041,-0.000049
2838.3678,-0.000056
2840.2314,-0.000062
2842.0951,-0.000282
2843.9588,-0.000090
2845.8224,-0.000073
2847.6861,-0.000539
2849.5498,-0.000472
2851.4134,-0.000147
2853.2771,-0.000304
2855.1408,-0.000434
2857.0045,-0.000181
2858.8681,-0.000328
2860.7318,-0.000255
2862.5955,0.000027
2864.4591,0.000020
2866.3228,-0.000099
2868.1865,-0.000305
2870.0501,-0.000518
2871.9138,-0.000394
2873.7775,-0.000041
2875.6411,0.000208
2877.5048,-0.000086
2879.3685,-0.000264
2881.2321,-0.000076
2883.0958,0.000059
2884.9595,-0.000118
2886.8232,-0.000232
2888.6868,-0.000390
2890.5505,-0.000765
2892.4142,-0.000633
2894.2778,0.000010
2896.1415,-0.000001
2898.0052,-0.000321
2899.8688,-0.000247
2901.7325,-0.000088
2903.5962,-0.000223
2905.4598,-0.000548
2907.3235,-0.000645
2909.1872,-0.000393
2911.0509,-0.000546
2912.9145,-0.000675
2914.7782,-0.000510
2916.6419,-0.000574
2918.5055,-0.000595
2920.3692,-0.000506
2922.2329,-0.000701
2924.0965,-0.000519
2925.9602,-0.000554
2927.8239,-0.000672
2929.6875,-0.000469
2931.5512,-0.000090
2933.4149,0.000292
2935.2785,0.000064
2937.1422,-0.000622
2939.0059,-0.000560
2940.8696,-0.000481
2942.7332,-0.000550
2944.5969,-0.000186
2946.4606,-0.000014
2948.3242,-0.000471
2950.1879,-0.000816
2952.0516,-0.000676
2953.9152,-0.000418
2955.7789,-0.000797
2957.6426,-0.000878
2959.5062,-0.000135
2961.3699,0.000162
2963.2336,-0.000029
2965.0972,-0.000129
2966.9609,-0.000402
2968.8246,-0.000710
2970.6883,-0.000938
2972.5519,-0.000967
2974.4156,-0.000722
2976.2793,-0.000192
2978.1429,-0.000337
2980.0066,-0.000748
2981.8703,-0.000687
2983.7339,-0.000657
2985.5976,-0.000781
2987.4613,-0.000539
2989.3249,-0.000425
2991.1886,-0.000519
2993.0523,-0.000468
2994.9160,-0.000419
2996.7796,-0.000402
2998.6433,-0.000274
3000.5070,-0.000552
3002.3706,-0.001035
3004.2343,-0.001033
3006.0980,-0.000548
3007.9616,-0.000482
3009.8253,-0.000934
3011.6890,-0.000787
3013.5526,-0.000388
3015.4163,-0.000682
3017.2800,-0.000853
3019.1436,-0.000739
3021.0073,-0.000659
3022.8710,-0.000507
3024.7347,-0.000688
3026.5983,-0.001247
3028.4620,-0.001118
3030.3257,-0.000551
3032.1893,-0.000399
3034.0530,-0.000868
3035.9167,-0.001157
3037.7803,-0.000977
3039.6440,-0.000765
3041.5077,-0.000830
3043.3713,-0.000422
3045.2350,-0.000238
3047.0987,-0.000832
3048.9624,-0.001084
3050.8260,-0.000751
3052.6897,-0.001024
3054.5534,-0.001273
3056.4170,-0.001336
3058.2807,-0.001610
3060.1444,-0.001399
3062.0080,-0.001081
3063.8717,-0.000953
3065.7354,-0.000485
3067.5990,-0.000275
3069.4627,-0.000576
3071.3264,-0.001125
3073.1900,-0.001273
3075.0537,-0.001030
3076.9174,-0.000760
3078.7811,-0.000710
3080.6447,-0.000954
3082.5084,-0.001051
3084.3721,-0.000580
3086.2357,-0.000837
3088.0994,-0.001105
3089.9631,-0.000616
3091.8267,-0.000567
3093.6904,-0.001180
3095.5541,-0.001439
3097.4177,-0.001226
3099.2814,-0.001400
3101.1451,-0.001844
3103.0087,-0.001456
3104.8724,-0.000824
3106.7361,-0.000568
3108.5998,-0.000844
3110.4634,-0.001003
3112.3271,-0.001286
3114.1908,-0.001451
3116.0544,-0.000937
3117.9181,-0.000632
3119.7818,-0.001224
3121.6454,-0.001645
3123.5091,-0.001702
3125.3728,-0.001577
3127.2364,-0.001798
3129.1001,-0.002196
3130.9638,-0.001981
3132.8275,-0.001553
3134.6911,-0.001172
3136.5548,-0.000934
3138.4185,-0.001192
3140.2821,-0.001474
3142.1458,-0.001652
3144.0095,-0.001652
3145.8731,-0.001472
3147.7368,-0.001476
3149.6005,-0.001614
3151.4641,-0.002029
3153.3278,-0.001893
3155.1915,-0.000953
3157.0551,-0.001521
3158.9188,-0.001614
3160.7825,-0.001158
3162.6462,-0.001273
3164.5098,-0.001138
3166.3735,-0.001109
3168.2372,-0.001769
3170.1008,-0.002129
3171.9645,-0.002226
3173.8282,-0.002244
3175.6918,-0.001889
3177.5555,-0.001404
3179.4192,-0.001319
3181.2828,-0.001497
3183.1465,-0.001929
3185.0102,-0.002141
3186.8739,-0.001627
3188.7375,-0.000738
3190.6012,-0.000994
3192.4649,-0.001683
3194.3285,-0.002083
3196.1922,-0.002208
3198.0559,-0.002509
3199.9195,-0.002647
3201.7832,-0.002386
3203.6469,-0.001872
3205.5105,-0.001530
3207.3742,-0.001439
3209.2379,-0.001604
3211.1015,-0.001459
3212.9652,-0.001603
3214.8289,-0.002372
3216.6926,-0.002569
3218.5562,-0.002082
3220.4199,-0.002427
3222.2836,-0.002433
3224.1472,-0.001771
3226.0109,-0.001575
3227.8746,-0.001862
3229.7382,-0.002177
3231.6019,-0.001978
3233.4656,-0.002029
3235.3292,-0.002460
3237.1929,-0.002073
3239.0566,-0.001528
3240.9202,-0.001304
3242.7839,-0.002133
3244.6476,-0.002919
3246.5113,-0.002653
3248.3749,-0.002077
3250.2386,-0.002295
3252.1023,-0.002857
3253.9659,-0.002549
3255.8296,-0.001874
3257.6933,-0.001887
3259.5569,-0.001949
3261.4206,-0.001987
3263.2843,-0.002238
3265.1479,-0.002104
3267.0116,-0.001868
3268.8753,-0.002656
3270.7390,-0.002856
3272.6026,-0.002865
3274.4663,-0.002991
3276.3300,-0.002606
3278.1936,-0.002112
3280.0573,-0.001899
3281.9210,-0.002364
3283.7846,-0.003107
3285.6483,-0.003223
3287.5120,-0.002752
3289.3756,-0.002033
3291.2393,-0.002154
3293.1030,-0.002443
3294.9666,-0.002294
3296.8303,-0.002025
3298.6940,-0.002161
3300.5577,-0.002280
3302.4213,-0.002770
3304.2850,-0.002722
3306.1487,-0.002581
3308.0123,-0.002896
3309.8760,-0.002369
3311.7397,-0.001104
3313.6033,-0.000814
3315.4670,-0.001544
3317.3307,-0.002689
3319.1943,-0.002623
3321.0580,-0.002458
3322.9217,-0.003591
3324.7854,-0.004399
3326.6490,-0.003607
3328.5127,-0.001737
3330.3764,-0.000954
3332.2400,-0.002409
3334.1037,-0.003507
3335.9674,-0.003134
3337.8310,-0.002206
3339.6947,-0.003149
3341.5584,-0.003712
3343.4220,-0.002914
3345.2857,-0.002323
3347.1494,-0.002812
3349.0130,-0.002758
3350.8767,-0.002868
3352.7404,-0.002407
3354.6041,-0.002343
3356.4677,-0.002761
3358.3314,-0.002894
3360.1951,-0.003036
3362.0587,-0.003683
3363.9224,-0.003825
3365.7861,-0.003486
3367.6497,-0.003683
3369.5134,-0.003956
3371.3771,-0.003036
3373.2407,-0.002187
3375.1044,-0.001514
3376.9681,-0.001741
3378.8317,-0.002498
3380.6954,-0.003456
3382.5591,-0.003002
3384.4228,-0.002594
3386.2864,-0.003729
3388.1501,-0.004403
3390.0138,-0.003984
3391.8774,-0.003972
3393.7411,-0.004080
3395.6048,-0.003743
3397.4684,-0.003733
3399.3321,-0.003243
3401.1958,-0.002480
3403.0594,-0.002597
3404.9231,-0.002290
3406.7868,-0.002534
3408.6505,-0.003404
3410.5141,-0.004334
3412.3778,-0.004041
3414.2415,-0.003852
3416.1051,-0.004028
3417.9688,-0.004364
3419.8325,-0.004126
3421.6961,-0.003404
3423.5598,-0.003458
3425.4235,-0.003212
3427.2871,-0.002643
3429.1508,-0.002689
3431.0145,-0.002338
3432.8781,-0.002769
3434.7418,-0.003171
3436.6055,-0.002341
3438.4692,-0.002736
3440.3328,-0.003616
3442.1965,-0.003986
3444.0602,-0.004629
3445.9238,-0.004747
3447.7875,-0.003485
3449.6512,-0.002437
3451.5148,-0.002839
3453.3785,-0.002806
3455.2422,-0.002901
3457.1058,-0.003452
3458.9695,-0.004163
3460.8332,-0.003926
3462.6969,-0.002351
3464.5605,-0.001784
3466.4242,-0.002320
3468.2879,-0.001838
3470.1515,-0.002365
3472.0152,-0.002535
3473.8789,-0.001813
3475.7425,-0.001141
3477.6062,-0.002157
3479.4699,-0.004168
3481.3335,-0.003617
3483.1972,-0.002139
3485.0609,-0.002797
3486.9245,-0.002875
3488.7882,-0.003409
3490.6519,-0.003625
3492.5156,-0.002925
3494.3792,-0.002075
3496.2429,-0.002191
3498.1066,-0.003263
3499.9702,-0.003487
3501.8339,-0.002723
3503.6976,-0.002499
3505.5612,-0.003021
3507.4249,-0.003149
3509.2886,-0.001725
3511.1522,-0.001670
3513.0159,-0.002779
3514.8796,-0.002626
3516.7432,-0.002238
3518.6069,-0.002084
3520.4706,-0.003079
3522.3343,-0.003052
3524.1979,-0.003135
3526.0616,-0.003326
3527.9253,-0.002228
3529.7889,-0.002121
3531.6526,-0.002644
3533.5163,-0.003530
3535.3799,-0.003033
3537.2436,-0.002388
3539.1073,-0.002018
3540.9709,-0.002145
3542.8346,-0.002404
3544.6983,-0.002997
3546.5620,-0.002609
3548.4256,-0.002569
3550.2893,-0.002818
3552.1530,-0.003354
3554.0166,-0.004242
3555.8803,-0.002805
3557.7440,-0.002204
3559.6076,-0.003596
3561.4713,-0.003858
3563.3350,-0.004431
3565.1986,-0.004220
3567.0623,-0.002766
3568.9260,-0.002317
3570.7896,-0.002779
3572.6533,-0.002710
3574.5170,-0.002357
3576.3807,-0.002744
3578.2443,-0.002976
3580.1080,-0.002738
3581.9717,-0.002715
3583.8353,-0.003202
3585.6990,-0.003591
3587.5627,-0.003350
3589.4263,-0.002756
3591.2900,-0.002550
3593.1537,-0.003111
3595.0173,-0.003029
3596.8810,-0.003431
3598.7447,-0.003021
3600.6084,-0.002511
3602.4720,-0.002656
3604.3357,-0.003354
3606.1994,-0.003387
3608.0630,-0.002645
3609.9267,-0.002520
3611.7904,-0.002101
3613.6540,-0.001957
3615.5177,-0.002683
3617.3814,-0.002632
3619.2450,-0.003334
3621.1087,-0.003510
3622.9724,-0.003068
3624.8360,-0.003454
3626.6997,-0.004458
3628.5634,-0.003080
3630.4271,-0.001912
3632.2907,-0.001483
3634.1544,-0.003228
3636.0181,-0.004353
3637.8817,-0.004007
3639.7454,-0.003509
3641.6091,-0.003070
3643.4727,-0.003077
3645.3364,-0.003487
3647.2001,-0.004440
3649.0637,-0.003919
3650.9274,-0.002999
3652.7911,-0.003685
3654.6547,-0.003913
3656.5184,-0.004137
3658.3821,-0.002681
3660.2458,-0.002202
3662.1094,-0.002679
3663.9731,-0.002943
3665.8368,-0.004389
3667.7004,-0.004650
3669.5641,-0.003947
3671.4278,-0.004066
3673.2914,-0.003335
3675.1551,-0.003367
3677.0188,-0.003407
3678.8824,-0.001767
3680.7461,-0.003091
3682.6098,-0.004115
3684.4735,-0.004323
3686.3371,-0.003804
3688.2008,-0.003040
3690.0645,-0.003066
3691.9281,-0.002516
3693.7918,-0.001687
3695.6555,-0.001890
3697.5191,-0.003515
3699.3828,-0.003578
3701.2465,-0.003705
3703.1101,-0.003879
3704.9738,-0.003212
3706.8375,-0.002884
3708.7011,-0.004298
3710.5648,-0.005088
3712.4285,-0.004327
3714.2922,-0.003195
3716.1558,-0.002628
3718.0195,-0.003634
3719.8832,-0.004500
3721.7468,-0.003874
3723.6105,-0.004304
3725.4742,-0.003996
3727.3378,-0.002861
3729.2015,-0.002952
3731.0652,-0.004455
3732.9288,-0.005522
3734.7925,-0.004473
3736.6562,-0.003228
3738.5199,-0.003108
3740.3835,-0.003913
3742.2472,-0.004791
3744.1109,-0.003159
3745.9745,-0.002006
3747.8382,-0.001399
3749.7019,-0.004766
3751.5655,-0.004191
3753.4292,-0.003277
3755.2929,-0.003731
3757.1565,-0.003991
3759.0202,-0.003768
3760.8839,-0.003534
3762.7475,-0.003454
3764.6112,-0.003375
3766.4749,-0.003962
3768.3386,-0.004220
3770.2022,-0.003994
3772.0659,-0.003348
3773.9296,-0.003485
3775.7932,-0.004567
3777.6569,-0.004234
3779.5206,-0.003993
3781.3842,-0.003542
3783.2479,-0.003092
3785.1116,-0.003605
3786.9752,-0.004108
3788.8389,-0.004103
3790.7026,-0.004486
3792.5662,-0.004559
3794.4299,-0.003833
3796.2936,-0.003944
3798.1573,-0.004280
3800.0209,-0.003397
3801.8846,-0.003686
3803.7483,-0.002645
3805.6119,-0.003074
3807.4756,-0.004692
3809.3393,-0.003771
3811.2029,-0.003570
3813.0666,-0.004470
3814.9303,-0.004484
3816.7939,-0.004422
3818.6576,-0.003505
3820.5213,-0.003963
3822.3850,-0.003709
3824.2486,-0.002507
3826.1123,-0.003243
3827.9760,-0.004190
3829.8396,-0.004412
3831.7033,-0.004485
3833.5670,-0.004598
3835.4306,-0.004809
3837.2943,-0.004927
3839.1580,-0.004484
3841.0216,-0.003006
3842.8853,-0.002636
3844.7490,-0.003296
3846.6126,-0.003019
3848.4763,-0.003311
3850.3400,-0.004963
3852.2037,-0.005173
3854.0673,-0.003840
3855.9310,-0.001689
3857.7947,-0.002484
3859.6583,-0.004436
3861.5220,-0.004182
3863.3857,-0.003176
3865.2493,-0.003108
3867.1130,-0.004502
3868.9767,-0.004425
3870.8403,-0.004359
3872.7040,-0.002731
3874.5677,-0.003966
3876.4314,-0.003905
3878.2950,-0.003791
3880.1587,-0.004938
3882.0224,-0.004570
3883.8860,-0.003675
3885.7497,-0.003927
3887.6134,-0.003713
3889.4770,-0.003280
3891.3407,-0.004289
3893.2044,-0.003607
3895.0680,-0.003599
3896.9317,-0.004902
3898.7954,-0.005225
3900.6590,-0.004221
3902.5227,-0.003510
3904.3864,-0.004087
3906.2501,-0.003187
3908.1137,-0.003394
3909.9774,-0.004469
3911.8411,-0.004377
3913.7047,-0.004500
3915.5684,-0.004749
3917.4321,-0.004721
3919.2957,-0.004464
3921.1594,-0.004494
3923.0231,-0.004196
3924.8867,-0.004408
3926.7504,-0.004407
3928.6141,-0.004302
3930.4777,-0.004058
3932.3414,-0.003198
3934.2051,-0.003546
3936.0688,-0.004416
3937.9324,-0.004689
3939.7961,-0.004305
3941.6598,-0.004133
3943.5234,-0.003761
3945.3871,-0.002961
3947.2508,-0.003423
3949.1144,-0.004509
3950.9781,-0.004704
3952.8418,-0.004823
3954.7054,-0.004418
3956.5691,-0.003866
3958.4328,-0.003869
3960.2965,-0.004764
3962.1601,-0.005316
3964.0238,-0.005509
3965.8875,-0.005192
3967.7511,-0.004661
3969.6148,-0.004478
3971.4785,-0.004631
3973.3421,-0.005113
3975.2058,-0.004674
3977.0695,-0.004820
3978.9331,-0.005340
3980.7968,-0.004530
3982.6605,-0.003915
3984.5241,-0.003971
3986.3878,-0.005018
3988.2515,-0.004958
3990.1152,-0.004264
3991.9788,-0.004465
3993.8425,-0.004719
3995.7062,-0.004536
3997.5698,-0.004767
3999.4335,-0.004870
4001.2972,-0.003963
4003.1608,-0.004257
4005.0245,-0.004864
4006.8882,-0.005176
4008.7518,-0.004645
4010.6155,-0.004374
4012.4792,-0.004503
4014.3429,-0.004089
4016.2065,-0.004717
4018.0702,-0.005376
4019.9339,-0.004750
4021.7975,-0.004482
4023.6612,-0.004875
4025.5249,-0.005668
4027.3885,-0.005715
4029.2522,-0.004958
4031.1159,-0.004288
4032.9795,-0.003941
4034.8432,-0.004327
4036.7069,-0.004667
4038.5705,-0.005276
4040.4342,-0.005073
4042.2979,-0.004059
4044.1616,-0.004244
4046.0252,-0.004755
4047.8889,-0.004557
4049.7526,-0.005099
4051.6162,-0.005639
4053.4799,-0.005754
4055.3436,-0.005209
4057.2072,-0.004615
4059.0709,-0.004693
4060.9346,-0.004737
4062.7982,-0.004669
4064.6619,-0.004643
4066.5256,-0.004529
4068.3892,-0.004477
4070.2529,-0.004931
4072.1166,-0.005312
4073.9803,-0.005192
4075.8439,-0.005296
4077.7076,-0.005300
4079.5713,-0.005006
4081.4349,-0.005331
4083.2986,-0.005596
4085.1623,-0.004930
4087.0259,-0.005091
4088.8896,-0.005489
4090.7533,-0.005176
4092.6169,-0.004584
4094.4806,-0.003782
4096.3443,-0.004028
4098.2080,-0.005093
4100.0716,-0.004984
4101.9353,-0.004562
4103.7990,-0.004651
4105.6626,-0.005190
4107.5263,-0.005315
4109.3900,-0.004774
4111.2536,-0.004367
4113.1173,-0.005069
4114.9810,-0.005929
4116.8446,-0.005871
4118.7083,-0.004868
4120.5720,-0.004301
4122.4356,-0.004286
4124.2993,-0.004310
4126.1630,-0.004371
4128.0267,-0.004176
4129.8903,-0.004321
4131.7540,-0.005110
4133.6177,-0.005428
4135.4813,-0.005429
4137.3450,-0.005057
4139.2087,-0.004446
4141.0723,-0.004974
4142.9360,-0.005631
4144.7997,-0.005933
4146.6633,-0.005897
4148.5270,-0.004866
4150.3907,-0.004137
4152.2544,-0.004311
4154.1180,-0.004943
4155.9817,-0.004949
4157.8454,-0.005071
4159.7090,-0.005482
4161.5727,-0.005276
4163.4364,-0.004546
4165.3000,-0.004538
4167.1637,-0.004753
4169.0274,-0.005068
4170.8910,-0.005483
4172.7547,-0.005836
4174.6184,-0.005732
4176.4820,-0.005324
4178.3457,-0.004553
4180.2094,-0.004339
4182.0731,-0.005367
4183.9367,-0.005979
4185.8004,-0.005692
4187.6641,-0.004711
4189.5277,-0.004510
4191.3914,-0.004607
4193.2551,-0.004929
4195.1187,-0.005195
4196.9824,-0.005218
4198.8461,-0.005071
4200.7097,-0.004520
4202.5734,-0.004542
4204.4371,-0.004912
4206.3007,-0.004977
4208.1644,-0.005038
4210.0281,-0.005211
4211.8918,-0.004746
4213.7554,-0.004931
4215.6191,-0.005370
4217.4828,-0.004534
4219.3464,-0.004321
4221.2101,-0.004719
4223.0738,-0.004998
4224.9374,-0.004796
4226.8011,-0.004949
4228.6648,-0.005127
4230.5284,-0.004793
4232.3921,-0.005037
4234.2558,-0.005510
4236.1195,-0.004673
4237.9831,-0.004438
4239.8468,-0.004973
4241.7105,-0.004992
4243.5741,-0.005277
4245.4378,-0.005241
4247.3015,-0.004185
4249.1651,-0.004582
4251.0288,-0.004936
4252.8925,-0.004960
4254.7561,-0.005516
4256.6198,-0.005082
4258.4835,-0.005129
4260.3471,-0.004606
4262.2108,-0.003819
4264.0745,-0.004448
4265.9382,-0.004616
4267.8018,-0.004581
4269.6655,-0.004577
4271.5292,-0.004627
4273.3928,-0.005214
4275.2565,-0.005069
4277.1202,-0.004756
4278.9838,-0.005371
4280.8475,-0.004417
4282.7112,-0.003297
4284.5748,-0.004023
4286.4385,-0.004279
4288.3022,-0.004194
4290.1659,-0.005314
4292.0295,-0.006041
4293.8932,-0.005409
4295.7569,-0.005333
4297.6205,-0.004370
4299.4842,-0.003894
4301.3479,-0.005151
4303.2115,-0.005350
4305.0752,-0.004505
4306.9389,-0.004837
4308.8025,-0.005293
4310.6662,-0.005266
4312.5299,-0.005260
4314.3935,-0.005047
4316.2572,-0.004811
4318.1209,-0.005128
4319.9846,-0.006091
4321.8482,-0.005360
4323.7119,-0.004234
4325.5756,-0.004652
4327.4392,-0.005129
4329.3029,-0.005366
4331.1666,-0.005472
4333.0302,-0.004379
4334.8939,-0.003910
4336.7576,-0.004226
4338.6212,-0.004565
4340.4849,-0.005246
4342.3486,-0.004904
4344.2122,-0.004194
4346.0759,-0.004424
4347.9396,-0.004676
4349.8033,-0.004779
4351.6669,-0.005846
4353.5306,-0.005698
4355.3943,-0.004462
4357.2579,-0.004533
4359.1216,-0.004881
4360.9853,-0.004419
4362.8489,-0.003550
4364.7126,-0.003912
4366.5763,-0.004960
4368.4399,-0.005339
4370.3036,-0.005167
4372.1673,-0.004885
4374.0310,-0.004916
4375.8946,-0.004275
4377.7583,-0.003617
4379.6220,-0.003584
4381.4856,-0.003216
4383.3493,-0.003548
4385.2130,-0.004547
4387.0766,-0.004885
4388.9403,-0.004444
4390.8040,-0.004145
4392.6676,-0.004727
4394.5313,-0.005193
4396.3950,-0.004917
4398.2586,-0.004664
4400.1223,-0.005681
4401.9860,-0.006950
4403.8497,-0.006145
4405.7133,-0.004188
4407.5770,-0.003489
4409.4407,-0.004410
4411.3043,-0.004659
4413.1680,-0.004183
4415.0317,-0.004070
4416.8953,-0.004236
4418.7590,-0.004184
4420.6227,-0.004797
4422.4863,-0.005988
4424.3500,-0.006022
4426.2137,-0.005489
4428.0774,-0.004952
4429.9410,-0.004246
4431.8047,-0.003483
4433.6684,-0.003482
4435.5320,-0.004213
4437.3957,-0.004572
4439.2594,-0.005200
4441.1230,-0.005471
4442.9867,-0.004620
4444.8504,-0.004701
4446.7140,-0.005049
4448.5777,-0.004562
4450.4414,-0.003915
4452.3050,-0.004691
4454.1687,-0.005054
4456.0324,-0.004442
4457.8961,-0.004865
4459.7597,-0.005252
4461.6234,-0.004348
4463.4871,-0.004004
4465.3507,-0.004065
4467.2144,-0.004769
4469.0781,-0.005729
4470.9417,-0.005376
4472.8054,-0.005295
4474.6691,-0.005993
4476.5327,-0.005250
4478.3964,-0.004889
4480.2601,-0.004169
4482.1237,-0.003352
4483.9874,-0.003724
4485.8511,-0.004529
4487.7148,-0.004662
4489.5784,-0.004528
4491.4421,-0.004114
4493.3058,-0.003745
4495.1694,-0.004016
4497.0331,-0.004870
4498.8968,-0.005420
4500.7604,-0.005515
