Wavenumber,Intensity
650.4205,0.001838
652.2841,0.001182
654.1478,0.001791
656.0115,0.002107
657.8751,0.002495
659.7388,0.003986
661.6025,0.003731
663.4661,0.002061
665.3298,0.002732
667.1935,0.005591
669.0571,0.005223
670.9208,0.002408
672.7845,0.002041
674.6481,0.003275
676.5118,0.003337
678.3755,0.002622
680.2392,0.002451
682.1028,0.002790
683.9665,0.003209
685.8302,0.003360
687.6938,0.003590
689.5575,0.004085
691.4212,0.004289
693.2848,0.004835
695.1485,0.004611
697.0122,0.003716
698.8758,0.002970
700.7395,0.002439
702.6032,0.002451
704.4669,0.002526
706.3305,0.002441
708.1942,0.002373
710.0579,0.002124
711.9215,0.001798
713.7852,0.001799
715.6489,0.002277
717.5125,0.002668
719.3762,0.002551
721.2399,0.002579
723.1035,0.002655
724.9672,0.002375
726.8309,0.002320
728.6945,0.002465
730.5582,0.002329
732.4219,0.002246
734.2856,0.002307
736.1492,0.002417
738.0129,0.002515
739.8766,0.002699
741.7402,0.002924
743.6039,0.003144
745.4676,0.002977
747.3312,0.002904
749.1949,0.003187
751.0586,0.003363
752.9222,0.003373
754.7859,0.003537
756.6496,0.003317
758.5132,0.003101
760.3769,0.003414
762.2406,0.003952
764.1043,0.004410
765.9679,0.004684
767.8316,0.004816
769.6953,0.005106
771.5589,0.005671
773.4226,0.006154
775.2863,0.006543
777.1499,0.006888
779.0136,0.006949
780.8773,0.006776
782.7409,0.006293
784.6046,0.005780
786.4683,0.005466
788.3320,0.005286
790.1956,0.005199
792.0593,0.005470
793.9230,0.006210
795.7866,0.006814
797.6503,0.006961
799.5140,0.006786
801.3776,0.006225
803.2413,0.005371
805.1050,0.004251
806.9686,0.003317
808.8323,0.002654
810.6960,0.002002
812.5596,0.001723
814.4233,0.001645
816.2870,0.001342
818.1507,0.001230
820.0143,0.001015
821.8780,0.000705
823.7417,0.000881
825.6053,0.001122
827.4690,0.001048
829.3327,0.001048
831.1963,0.001229
833.0600,0.001368
834.9237,0.001331
836.7873,0.001232
838.6510,0.001140
840.5147,0.001163
842.3784,0.001200
844.2420,0.001212
846.1057,0.001259
847.9694,0.001413
849.8330,0.001554
851.6967,0.001693
853.5604,0.001784
855.4240,0.001572
857.2877,0.001407
859.1514,0.001520
861.0150,0.001580
862.8787,0.001770
864.7424,0.001998
866.6060,0.001986
868.4697,0.001870
870.3334,0.001812
872.1971,0.001804
874.0607,0.001851
875.9244,0.001931
877.7881,0.001994
879.6517,0.001959
881.5154,0.001926
883.3791,0.002085
885.2427,0.002200
887.1064,0.002090
888.9701,0.002056
890.8337,0.002166
892.6974,0.002230
894.5611,0.002247
896.4247,0.002312
898.2884,0.002282
900.1521,0.002383
902.0158,0.002604
903.8794,0.002610
905.7431,0.002414
907.6068,0.002241
909.4704,0.002337
911.3341,0.002623
913.1978,0.002917
915.0614,0.002975
916.9251,0.002801
918.7888,0.002765
920.6524,0.002808
922.5161,0.002720
924.3798,0.002743
926.2435,0.002976
928.1071,0.003147
929.9708,0.003131
931.8345,0.003107
933.6981,0.003246
935.5618,0.003358
937.4255,0.003354
939.2891,0.003477
941.1528,0.003534
943.0165,0.003453
944.8801,0.003555
946.7438,0.003722
948.6075,0.003801
950.4711,0.003808
952.3348,0.003740
954.1985,0.003738
956.0622,0.003868
957.9258,0.003951
959.7895,0.003979
961.6532,0.003993
963.5168,0.004037
965.3805,0.004076
967.2442,0.004097
969.1078,0.004182
970.9715,0.004235
972.8352,0.004278
974.6988,0.004348
976.5625,0.004398
978.4262,0.004493
980.2899,0.004625
982.1535,0.004730
984.0172,0.004747
985.8809,0.004801
987.7445,0.004954
989.6082,0.005094
991.4719,0.005154
993.3355,0.005234
995.1992,0.005428
997.0629,0.005526
998.9265,0.005546
1000.7902,0.005656
1002.6539,0.005809
1004.5175,0.005907
1006.3812,0.005954
1008.2449,0.006023
1010.1086,0.006126
1011.9722,0.006202
1013.8359,0.006237
1015.6996,0.006368
1017.5632,0.006564
1019.4269,0.006757
1021.2906,0.006915
1023.1542,0.007107
1025.0179,0.007231
1026.8816,0.007312
1028.7452,0.007567
1030.6089,0.007847
1032.4726,0.007980
1034.3362,0.008109
1036.1999,0.008401
1038.0636,0.008677
1039.9273,0.008765
1041.7909,0.008863
1043.6546,0.009137
1045.5183,0.009451
1047.3819,0.009691
1049.2456,0.010010
1051.1093,0.010346
1052.9729,0.010631
1054.8366,0.010912
1056.7003,0.011218
1058.5639,0.011571
1060.4276,0.011913
1062.2913,0.012233
1064.1550,0.012575
1066.0186,0.012881
1067.8823,0.013105
1069.7460,0.013325
1071.6096,0.013579
1073.4733,0.013920
1075.3370,0.014356
1077.2006,0.014587
1079.0643,0.014749
1080.9280,0.014979
1082.7916,0.015016
1084.6553,0.014957
1086.5190,0.014869
1088.3826,0.014603
1090.2463,0.014295
1092.1100,0.014092
1093.9737,0.013867
1095.8373,0.013541
1097.7010,0.013185
1099.5647,0.012948
1101.4283,0.012702
1103.2920,0.012293
1105.1557,0.011920
1107.0193,0.011635
1108.8830,0.011348
1110.7467,0.011082
1112.6103,0.010818
1114.4740,0.010568
1116.3377,0.010280
1118.2014,0.009975
1120.0650,0.009761
1121.9287,0.009475
1123.7924,0.009112
1125.6560,0.008825
1127.5197,0.008567
1129.3834,0.008310
1131.2470,0.008078
1133.1107,0.007859
1134.9744,0.007651
1136.8380,0.007467
1138.7017,0.007313
1140.5654,0.007116
1142.4290,0.006870
1144.2927,0.006652
1146.1564,0.006464
1148.0201,0.006261
1149.8837,0.006160
1151.7474,0.006065
1153.6111,0.005903
1155.4747,0.005795
1157.3384,0.005726
1159.2021,0.005755
1161.0657,0.005953
1162.9294,0.006121
1164.7931,0.006138
1166.6567,0.005945
1168.5204,0.005657
1170.3841,0.005440
1172.2477,0.005301
1174.1114,0.005090
1175.9751,0.004866
1177.8388,0.004777
1179.7024,0.004723
1181.5661,0.004629
1183.4298,0.004501
1185.2934,0.004432
1187.1571,0.004372
1189.0208,0.004241
1190.8844,0.004189
1192.7481,0.004139
1194.6118,0.003969
1196.4754,0.003829
1198.3391,0.003767
1200.2028,0.003677
1202.0665,0.003508
1203.9301,0.003321
1205.7938,0.003135
1207.6575,0.002954
1209.5211,0.002810
1211.3848,0.002623
1213.2485,0.002377
1215.1121,0.002134
1216.9758,0.001891
1218.8395,0.001691
1220.7031,0.001549
1222.5668,0.001441
1224.4305,0.001325
1226.2941,0.001176
1228.1578,0.001072
1230.0215,0.001064
1231.8852,0.001039
1233.7488,0.000876
1235.6125,0.000750
1237.4762,0.000799
1239.3398,0.000815
1241.2035,0.000750
1243.0672,0.000726
1244.9308,0.000684
1246.7945,0.000592
1248.6582,0.000531
1250.5218,0.000554
1252.3855,0.000486
1254.2492,0.000457
1256.1129,0.000557
1257.9765,0.000557
1259.8402,0.000506
1261.7039,0.000506
1263.5675,0.000472
1265.4312,0.000400
1267.2949,0.000394
1269.1585,0.000432
1271.0222,0.000343
1272.8859,0.000307
1274.7495,0.000302
1276.6132,0.000160
1278.4769,0.000174
1280.3405,0.000289
1282.2042,0.000283
1284.0679,0.000227
1285.9316,0.000223
1287.7952,0.000196
1289.6589,0.000173
1291.5226,0.000187
1293.3862,0.000168
1295.2499,0.000159
1297.1136,0.000152
1298.9772,0.000146
1300.8409,0.000121
1302.7046,0.000057
1304.5682,0.000040
1306.4319,0.000042
1308.2956,0.000048
1310.1592,0.000104
1312.0229,0.000089
1313.8866,0.000101
1315.7503,0.000204
1317.6139,0.000223
1319.4776,0.000176
1321.3413,0.000121
1323.2049,0.000105
1325.0686,-0.000004
1326.9323,-0.000119
1328.7959,-0.000021
1330.6596,0.000144
1332.5233,0.000125
1334.3869,-0.000016
1336.2506,-0.000062
1338.1143,0.000176
1339.9780,0.000327
1341.8416,0.000226
1343.7053,0.000031
1345.5690,-0.000019
1347.4326,-0.000008
1349.2963,-0.000042
1351.1600,-0.000008
1353.0236,0.000023
1354.8873,0.000083
1356.7510,0.000066
1358.6146,-0.000041
1360.4783,-0.000003
1362.3420,0.000063
1364.2056,0.000158
1366.0693,0.000136
1367.9330,0.000035
1369.7967,0.000055
1371.6603,0.000033
1373.5240,0.000163
1375.3877,0.000379
1377.2513,0.000270
1379.1150,-0.000036
1380.9787,0.000021
1382.8423,-0.000059
1384.7060,-0.000095
1386.5697,-0.000039
1388.4333,0.000087
1390.2970,-0.000009
1392.1607,-0.000253
1394.0244,-0.000247
1395.8880,0.000211
1397.7517,0.000373
1399.6154,0.000169
1401.4790,0.000378
1403.3427,0.000091
1405.2064,0.000145
1407.0700,0.000196
1408.9337,-0.000028
1410.7974,-0.000142
1412.6610,-0.000017
1414.5247,-0.000148
1416.3884,-0.000288
1418.2520,-0.000126
1420.1157,0.000561
1421.9794,0.000688
1423.8431,0.000094
1425.7067,0.000169
1427.5704,0.000076
1429.4341,0.000086
1431.2977,0.000299
1433.1614,0.000102
1435.0251,-0.000146
1436.8887,0.000163
1438.7524,0.000694
1440.6161,0.000073
1442.4797,-0.000135
1444.3434,-0.000085
1446.2071,-0.000136
1448.0707,0.000081
1449.9344,0.000384
1451.7981,0.000140
1453.6618,-0.000080
1455.5254,-0.000276
1457.3891,0.000390
1459.2528,0.001253
1461.1164,0.000327
1462.9801,-0.000208
1464.8438,0.000013
1466.7074,0.000610
1468.5711,0.000000
1470.4348,-0.000487
1472.2984,-0.000556
1474.1621,0.000586
1476.0258,0.000535
1477.8895,0.000436
1479.7531,0.000305
1481.6168,0.000031
1483.4805,-0.000025
1485.3441,-0.000321
1487.2078,-0.000221
1489.0715,0.000568
1490.9351,0.000882
1492.7988,0.000466
1494.6625,-0.000344
1496.5261,-0.000223
1498.3898,0.000562
1500.2535,0.000425
1502.1171,-0.000124
1503.9808,-0.000628
1505.8445,-0.000685
1507.7082,0.001267
1509.5718,0.001637
1511.4355,0.000660
1513.2992,0.000451
1515.1628,0.000193
1517.0265,-0.000042
1518.8902,0.000399
1520.7538,-0.000159
1522.6175,0.000378
1524.4812,0.000613
1526.3448,0.000584
1528.2085,0.000821
1530.0722,0.000116
1531.9359,-0.000018
1533.7995,0.000426
1535.6632,0.000670
1537.5269,-0.000778
1539.3905,-0.001051
1541.2542,0.000946
1543.1179,0.001276
1544.9815,0.000890
1546.8452,0.000811
1548.7089,0.000249
1550.5725,0.000080
1552.4362,0.000093
1554.2999,-0.000520
1556.1635,-0.000276
1558.0272,-0.000686
1559.8909,0.001560
1561.7546,0.001854
1563.6182,0.000256
1565.4819,-0.000072
1567.3456,0.000015
1569.2092,-0.000045
1571.0729,0.000697
1572.9366,0.000154
1574.8002,-0.000755
1576.6639,0.000005
1578.5276,0.000872
1580.3912,0.000105
1582.2549,-0.000005
1584.1186,0.000036
1585.9822,-0.000013
1587.8459,-0.000123
1589.7096,-0.000221
1591.5733,-0.000083
1593.4369,-0.000159
1595.3006,-0.000019
1597.1643,0.000067
1599.0279,-0.000043
1600.8916,-0.000084
1602.7553,-0.000045
1604.6189,-0.000157
1606.4826,-0.000090
1608.3463,0.000058
1610.2099,0.000252
1612.0736,0.000043
1613.9373,-0.000250
1615.8010,-0.000944
1617.6646,0.000006
1619.5283,0.000468
1621.3920,-0.000339
1623.2556,-0.000220
1625.1193,0.000632
1626.9830,0.000119
1628.8466,0.000120
1630.7103,0.000181
1632.5740,-0.000445
1634.4376,-0.000938
1636.3013,0.000385
1638.1650,0.001198
1640.0286,0.000379
1641.8923,0.000202
1643.7560,-0.000351
1645.6197,-0.000338
1647.4833,0.000991
1649.3470,0.000740
1651.2107,-0.000982
1653.0743,-0.000630
1654.9380,0.002213
1656.8017,0.000760
1658.6653,-0.000214
1660.5290,-0.000238
1662.3927,-0.000085
1664.2563,0.000533
1666.1200,0.000106
1667.9837,-0.000396
1669.8474,-0.000058
1671.7110,0.000293
1673.5747,-0.000003
1675.4384,0.000241
1677.3020,0.000910
1679.1657,-0.000018
1681.0294,-0.000168
1682.8930,-0.000338
1684.7567,0.000379
1686.6204,0.001429
1688.4840,0.000276
1690.3477,0.000141
1692.2114,-0.000006
1694.0750,-0.000536
1695.9387,-0.000309
1697.8024,0.000978
1699.6661,-0.000464
1701.5297,0.001415
1703.3934,0.000828
1705.2571,-0.000348
1707.1207,0.000343
1708.9844,0.000187
1710.8481,0.000046
1712.7117,-0.000005
1714.5754,-0.000171
1716.4391,-0.000115
1718.3027,0.000293
1720.1664,0.001035
1722.0301,0.000176
1723.8937,0.000039
1725.7574,0.000032
1727.6211,-0.000106
1729.4848,-0.000131
1731.3484,-0.000039
1733.2121,-0.000254
1735.0758,0.001031
1736.9394,0.000839
1738.8031,-0.000452
1740.6668,0.000334
1742.5304,0.000425
1744.3941,0.000286
1746.2578,0.000077
1748.1214,-0.000112
1749.9851,0.000567
1751.8488,0.001109
1753.7125,0.000850
1755.5761,-0.000071
1757.4398,0.000137
1759.3035,0.000189
1761.1671,-0.000143
1763.0308,0.000459
1764.8945,0.000236
1766.7581,-0.000349
1768.6218,-0.000123
1770.4855,0.000011
1772.3491,-0.000018
1774.2128,0.000629
1776.0765,0.000122
1777.9401,-0.000002
1779.8038,-0.000066
1781.6675,0.000133
1783.5312,-0.000015
1785.3948,-0.000023
1787.2585,0.000121
1789.1222,-0.000138
1790.9858,-0.000323
1792.8495,0.000308
1794.7132,0.000614
1796.5768,0.000063
1798.4405,0.000008
1800.3042,0.000105
1802.1678,0.000418
1804.0315,0.000333
1805.8952,-0.000144
1807.7589,-0.000303
1809.6225,-0.000160
1811.4862,0.000079
1813.3499,0.000172
1815.2135,-0.000127
1817.0772,-0.000103
1818.9409,-0.000034
1820.8045,-0.000131
1822.6682,-0.000081
1824.5319,0.000032
1826.3955,0.000364
1828.2592,0.000026
1830.1229,0.000016
1831.9865,0.000545
1833.8502,-0.000048
1835.7139,-0.000304
1837.5776,-0.000179
1839.4412,-0.000039
1841.3049,-0.000184
1843.1686,-0.000503
1845.0322,0.000267
1846.8959,0.000718
1848.7596,0.000093
1850.6232,0.000058
1852.4869,0.000022
1854.3506,0.000065
1856.2142,-0.000048
1858.0779,-0.000093
1859.9416,-0.000204
1861.8052,-0.000076
1863.6689,-0.000117
1865.5326,-0.000179
1867.3963,-0.000173
1869.2599,0.000244
1871.1236,0.000491
1872.9873,0.000169
1874.8509,-0.000119
1876.7146,0.000011
1878.5783,0.000082
1880.4419,0.000034
1882.3056,0.000062
1884.1693,0.000149
1886.0329,0.000257
1887.8966,0.000314
1889.7603,0.000356
1891.6240,0.000250
1893.4876,-0.000170
1895.3513,-0.000003
1897.2150,0.000011
1899.0786,0.000007
1900.9423,-0.000103
1902.8060,-0.000117
1904.6696,-0.000026
1906.5333,0.000039
1908.3970,-0.000122
1910.2606,-0.000107
1912.1243,0.000155
1913.9880,0.000195
1915.8516,0.000018
1917.7153,0.000257
1919.5790,0.000497
1921.4427,0.000123
1923.3063,0.000170
1925.1700,0.000334
1927.0337,-0.000012
1928.8973,-0.000155
1930.7610,-0.000008
1932.6247,-0.000109
1934.4883,-0.000325
1936.3520,0.000235
1938.2157,0.000215
1940.0793,-0.000390
1941.9430,-0.000563
1943.8067,0.000339
1945.6704,0.000258
1947.5340,-0.000487
1949.3977,-0.000539
1951.2614,-0.000396
1953.1250,-0.000385
1954.9887,-0.000053
1956.8524,0.000519
1958.7160,0.000682
1960.5797,0.000175
1962.4434,-0.000415
1964.3070,-0.000195
1966.1707,-0.000278
1968.0344,-0.000765
1969.8980,0.000141
1971.7617,0.000829
1973.6254,0.000093
1975.4891,-0.000438
1977.3527,-0.000102
1979.2164,0.000232
1981.0801,0.000173
1982.9437,0.000146
1984.8074,0.000231
1986.6711,-0.000313
1988.5347,-0.000012
1990.3984,-0.000169
1992.2621,-0.000911
1994.1257,-0.000778
1995.9894,-0.000020
1997.8531,0.000416
1999.7167,0.000853
2001.5804,0.000197
2003.4441,-0.000381
2005.3078,0.000202
2007.1714,0.000023
2009.0351,-0.001081
2010.8988,-0.000795
2012.7624,-0.000095
2014.6261,-0.000479
2016.4898,-0.000105
2018.3534,0.000395
2020.2171,0.000261
2022.0808,-0.000167
2023.9444,-0.000337
2025.8081,-0.000418
2027.6718,-0.000347
2029.5355,0.000174
2031.3991,0.000141
2033.2628,-0.000381
2035.1265,-0.000194
2036.9901,0.000025
2038.8538,-0.000561
2040.7175,-0.000801
2042.5811,-0.000817
2044.4448,-0.000487
2046.3085,-0.000382
2048.1721,-0.000339
2050.0358,0.000740
2051.8995,0.001287
2053.7631,0.000571
2055.6268,-0.000124
2057.4905,-0.000452
2059.3542,-0.000437
2061.2178,-0.000435
2063.0815,-0.000313
2064.9452,-0.000109
2066.8088,-0.000087
2068.6725,-0.000544
2070.5362,-0.000035
2072.3998,0.000377
2074.2635,0.000324
2076.1272,-0.000118
2077.9908,-0.000466
2079.8545,-0.000484
2081.7182,-0.000559
2083.5819,-0.000381
2085.4455,0.000191
2087.3092,-0.000009
2089.1729,-0.000234
2091.0365,-0.000279
2092.9002,-0.000104
2094.7639,-0.000255
2096.6275,-0.000230
2098.4912,0.000131
2100.3549,0.000164
2102.2185,-0.000004
2104.0822,0.000101
2105.9459,0.000368
2107.8095,0.000256
2109.6732,-0.000225
2111.5369,-0.000395
2113.4006,-0.000731
2115.2642,-0.000276
2117.1279,0.000598
2118.9916,0.000302
2120.8552,-0.000239
2122.7189,-0.000199
2124.5826,-0.000252
2126.4462,-0.000335
2128.3099,-0.000313
2130.1736,-0.000486
2132.0372,-0.000700
2133.9009,-0.000562
2135.7646,-0.000649
2137.6282,-0.000897
2139.4919,-0.001136
2141.3556,-0.000634
2143.2193,-0.000309
2145.0829,-0.000349
2146.9466,0.000123
2148.8103,-0.000380
2150.6739,-0.001235
2152.5376,-0.000780
2154.4013,-0.000491
2156.2649,-0.000410
2158.1286,-0.000557
2159.9923,-0.000560
2161.8559,-0.000034
2163.7196,-0.000074
2165.5833,-0.000250
2167.4470,0.000351
2169.3106,0.000178
2171.1743,0.000130
2173.0380,-0.000496
2174.9016,-0.001216
2176.7653,-0.000460
2178.6290,0.000591
2180.4926,-0.000042
2182.3563,-0.000824
2184.2200,-0.001435
2186.0836,-0.001391
2187.9473,-0.000578
2189.8110,-0.000158
2191.6746,-0.000302
2193.5383,-0.000561
2195.4020,-0.000599
2197.2657,-0.000597
2199.1293,-0.000595
2200.9930,-0.000212
2202.8567,0.000049
2204.7203,-0.000230
2206.5840,-0.000812
2208.4477,-0.000683
2210.3113,-0.000189
2212.1750,-0.000055
2214.0387,-0.000314
2215.9023,-0.000324
2217.7660,-0.000752
2219.6297,-0.000345
2221.4934,0.000347
2223.3570,0.000162
2225.2207,-0.000374
2227.0844,-0.000323
2228.9480,-0.000102
2230.8117,0.000020
2232.6754,0.000346
2234.5390,-0.000374
2236.4027,-0.000731
2238.2664,-0.000179
2240.1300,-0.000416
2241.9937,-0.000547
2243.8574,0.000220
2245.7210,0.000569
2247.5847,0.000224
2249.4484,-0.000273
2251.3121,-0.000628
2253.1757,-0.000389
2255.0394,-0.000156
2256.9031,-0.000139
2258.7667,-0.000088
2260.6304,-0.000416
2262.4941,-0.000953
2264.3577,-0.000716
2266.2214,-0.000200
2268.0851,-0.000398
2269.9487,-0.000433
2271.8124,-0.000159
2273.6761,-0.000239
2275.5397,-0.000357
2277.4034,-0.000805
2279.2671,-0.000582
2281.1308,0.000003
2282.9944,0.000257
2284.8581,-0.000133
2286.7218,-0.000496
2288.5854,-0.000365
2290.4491,-0.000040
2292.3128,0.000243
2294.1764,0.000016
2296.0401,-0.000401
2297.9038,-0.000038
2299.7674,0.000307
2301.6311,0.000084
2303.4948,0.000159
2305.3585,0.000655
2307.2221,0.000648
2309.0858,0.000418
2310.9495,0.000465
2312.8131,0.000616
2314.6768,0.000868
2316.5405,0.001218
2318.4041,0.001087
2320.2678,0.001106
2322.1315,0.001651
2323.9951,0.001968
2325.8588,0.002171
2327.7225,0.002466
2329.5861,0.002288
2331.4498,0.001935
2333.3135,0.001980
2335.1772,0.002201
2337.0408,0.002393
2338.9045,0.002224
2340.7682,0.002008
2342.6318,0.002187
2344.4955,0.002237
2346.3592,0.002085
2348.2228,0.001330
2350.0865,0.000730
2351.9502,0.001133
2353.8138,0.001373
2355.6775,0.002043
2357.5412,0.003293
2359.4049,0.003360
2361.2685,0.003048
2363.1322,0.003431
2364.9959,0.003901
2366.8595,0.003285
2368.7232,0.002160
2370.5869,0.001864
2372.4505,0.002021
2374.3142,0.001736
2376.1779,0.001190
2378.0415,0.000623
2379.9052,0.000229
2381.7689,0.000092
2383.6325,-0.000158
2385.4962,-0.000377
2387.3599,-0.000396
2389.2236,-0.000372
2391.0872,-0.000337
2392.9509,-0.000507
2394.8146,-0.000630
2396.6782,-0.000401
2398.5419,-0.000367
2400.4056,-0.000659
2402.2692,-0.000541
2404.1329,-0.000552
2405.9966,-0.000770
2407.8602,-0.000989
2409.7239,-0.001007
2411.5876,-0.000843
2413.4512,-0.000600
2415.3149,-0.000523
2417.1786,-0.000782
2419.0423,-0.000743
2420.9059,-0.000603
2422.7696,-0.000667
2424.6333,-0.000321
2426.4969,-0.000351
2428.3606,-0.000461
2430.2243,-0.000713
2432.0879,-0.000662
2433.9516,-0.000363
2435.8153,-0.000305
2437.6789,-0.000562
2439.5426,-0.000446
2441.4063,-0.000180
2443.2700,-0.000530
2445.1336,-0.000919
2446.9973,-0.000907
2448.8610,-0.000719
2450.7246,-0.000474
2452.5883,-0.000625
2454.4520,-0.000463
2456.3156,-0.000286
2458.1793,-0.000389
2460.0430,-0.000653
2461.9066,-0.000558
2463.7703,-0.000257
2465.6340,-0.000591
2467.4976,-0.000897
2469.3613,-0.000838
2471.2250,-0.000954
2473.0887,-0.000669
2474.9523,-0.000240
2476.8160,-0.000277
2478.6797,-0.000767
2480.5433,-0.001050
2482.4070,-0.001095
2484.2707,-0.001141
2486.1343,-0.000659
2487.9980,-0.000275
2489.8617,-0.000485
2491.7253,-0.000592
2493.5890,-0.000279
2495.4527,-0.000215
2497.3164,-0.000612
2499.1800,-0.000681
2501.0437,-0.000603
2502.9074,-0.000207
2504.7710,0.000143
2506.6347,-0.000384
2508.4984,-0.001030
2510.3620,-0.000648
2512.2257,-0.000110
2514.0894,-0.000102
2515.9530,-0.000366
2517.8167,-0.000551
2519.6804,-0.000625
2521.5440,-0.000397
2523.4077,-0.000118
2525.2714,-0.000382
2527.1351,-0.000664
2528.9987,-0.000508
2530.8624,-0.000475
2532.7261,-0.000258
2534.5897,-0.000266
2536.4534,-0.000624
2538.3171,-0.000704
2540.1807,-0.000503
2542.0444,-0.000320
2543.9081,-0.000320
2545.7717,-0.000862
2547.6354,-0.001076
2549.4991,-0.000712
2551.3627,-0.000385
2553.2264,-0.000436
2555.0901,-0.000406
2556.9538,-0.000549
2558.8174,-0.000737
2560.6811,-0.000605
2562.5448,-0.000312
2564.4084,-0.000320
2566.2721,-0.000535
2568.1358,-0.000849
2569.9994,-0.000905
2571.8631,-0.000557
2573.7268,-0.000731
2575.5904,-0.000929
2577.4541,-0.000643
2579.3178,-0.000624
2581.1815,-0.000515
2583.0451,-0.000410
2584.9088,-0.000153
2586.7725,-0.000056
2588.6361,-0.000182
2590.4998,-0.000460
2592.3635,-0.000844
2594.2271,-0.000884
2596.0908,-0.000426
2597.9545,-0.000131
2599.8181,-0.000432
2601.6818,-0.000605
2603.5455,-0.000684
2605.4091,-0.000550
2607.2728,-0.000326
2609.1365,-0.000797
2611.0002,-0.001095
2612.8638,-0.000992
2614.7275,-0.000888
2616.5912,-0.000769
2618.4548,-0.000581
2620.3185,-0.000276
2622.1822,-0.000125
2624.0458,-0.000395
2625.9095,-0.000848
2627.7732,-0.000791
2629.6368,-0.000538
2631.5005,-0.000510
2633.3642,-0.000658
2635.2279,-0.000689
2637.0915,-0.000734
2638.9552,-0.000777
2640.8189,-0.000536
2642.6825,-0.000459
2644.5462,-0.000612
2646.4099,-0.000880
2648.2735,-0.000975
2650.1372,-0.000767
2652.0009,-0.000583
2653.8645,-0.000518
2655.7282,-0.000551
2657.5919,-0.000768
2659.4555,-0.000770
2661.3192,-0.000819
2663.1829,-0.000746
2665.0466,-0.000716
2666.9102,-0.000772
2668.7739,-0.000639
2670.6376,-0.000621
2672.5012,-0.000737
2674.3649,-0.000803
2676.2286,-0.000936
2678.0922,-0.000859
2679.9559,-0.000822
2681.8196,-0.000975
2683.6832,-0.000968
2685.5469,-0.000827
2687.4106,-0.000811
2689.2742,-0.000903
2691.1379,-0.000968
2693.0016,-0.000772
2694.8653,-0.000759
2696.7289,-0.000933
2698.5926,-0.000945
2700.4563,-0.000920
2702.3199,-0.000812
2704.1836,-0.000645
2706.0473,-0.000847
2707.9109,-0.001000
2709.7746,-0.000836
2711.6383,-0.000896
2713.5019,-0.001054
2715.3656,-0.000899
2717.2293,-0.000635
2719.0930,-0.000440
2720.9566,-0.000388
2722.8203,-0.000357
2724.6840,-0.000494
2726.5476,-0.000787
2728.4113,-0.001195
2730.2750,-0.001346
2732.1386,-0.001117
2734.0023,-0.001131
2735.8660,-0.001378
2737.7296,-0.001234
2739.5933,-0.001025
2741.4570,-0.000889
2743.3206,-0.000784
2745.1843,-0.000679
2747.0480,-0.000563
2748.9117,-0.000608
2750.7753,-0.000918
2752.6390,-0.001268
2754.5027,-0.001347
2756.3663,-0.000962
2758.2300,-0.000764
2760.0937,-0.000994
2761.9573,-0.001079
2763.8210,-0.000886
2765.6847,-0.000872
2767.5483,-0.000970
2769.4120,-0.000921
2771.2757,-0.000863
2773.1394,-0.000879
2775.0030,-0.000875
2776.8667,-0.001016
2778.7304,-0.000916
2780.5940,-0.000843
2782.4577,-0.000975
2784.3214,-0.001046
2786.1850,-0.001229
2788.0487,-0.001046
2789.9124,-0.000615
2791.7760,-0.000623
2793.6397,-0.000844
2795.5034,-0.001119
2797.3670,-0.001073
2799.2307,-0.000942
2801.0944,-0.001090
2802.9581,-0.001346
2804.8217,-0.001113
2806.6854,-0.000910
2808.5491,-0.000893
2810.4127,-0.000839
2812.2764,-0.001015
2814.1401,-0.000998
2816.0037,-0.000743
2817.8674,-0.000734
2819.7311,-0.000797
2821.5947,-0.001177
2823.4584,-0.001442
2825.3221,-0.001347
2827.1857,-0.001151
2829.0494,-0.000967
2830.9131,-0.000844
2832.7768,-0.000666
2834.6404,-0.000523
2836.5041,-0.000668
2838.3678,-0.000889
2840.2314,-0.001268
2842.0951,-0.001329
2843.9588,-0.001159
2845.8224,-0.001144
2847.6861,-0.001085
2849.5498,-0.001051
2851.4134,-0.000892
2853.2771,-0.001002
2855.1408,-0.001359
2857.0045,-0.001086
2858.8681,-0.001051
2860.7318,-0.001083
2862.5955,-0.000927
2864.4591,-0.001035
2866.3228,-0.000985
2868.1865,-0.000837
2870.0501,-0.001049
2871.9138,-0.001304
2873.7775,-0.001183
2875.6411,-0.000792
2877.5048,-0.000981
2879.3685,-0.001400
2881.2321,-0.001299
2883.0958,-0.001102
2884.9595,-0.001300
2886.8232,-0.001594
2888.6868,-0.001791
2890.5505,-0.001655
2892.4142,-0.001223
2894.2778,-0.000836
2896.1415,-0.001022
2898.0052,-0.001066
2899.8688,-0.001029
2901.7325,-0.001356
2903.5962,-0.001634
2905.4598,-0.001798
2907.3235,-0.001665
2909.1872,-0.001401
2911.0509,-0.001453
2912.9145,-0.001378
2914.7782,-0.001331
2916.6419,-0.001345
2918.5055,-0.001172
2920.3692,-0.001148
2922.2329,-0.001232
2924.0965,-0.000861
2925.9602,-0.001004
2927.8239,-0.001581
2929.6875,-0.001691
2931.5512,-0.001349
2933.4149,-0.000852
2935.2785,-0.000758
2937.1422,-0.001227
2939.0059,-0.001342
2940.8696,-0.001379
2942.7332,-0.001270
2944.5969,-0.000882
2946.4606,-0.000840
2948.3242,-0.001166
2950.1879,-0.001285
2952.0516,-0.001052
2953.9152,-0.000938
2955.7789,-0.001522
2957.6426,-0.001742
2959.5062,-0.000971
2961.3699,-0.000615
2963.2336,-0.001045
2965.0972,-0.001092
2966.9609,-0.000939
2968.8246,-0.001277
2970.6883,-0.001603
2972.5519,-0.001332
2974.4156,-0.001197
2976.2793,-0.001072
2978.1429,-0.001114
2980.0066,-0.001407
2981.8703,-0.001523
2983.7339,-0.001544
2985.5976,-0.001517
2987.4613,-0.001681
2989.3249,-0.001784
2991.1886,-0.001425
2993.0523,-0.001281
2994.9160,-0.001359
2996.7796,-0.001443
2998.6433,-0.001497
3000.5070,-0.001292
3002.3706,-0.001147
3004.2343,-0.001449
3006.0980,-0.001742
3007.9616,-0.001552
3009.8253,-0.001332
3011.6890,-0.001356
3013.5526,-0.001339
3015.4163,-0.001742
3017.2800,-0.002191
3019.1436,-0.001869
3021.0073,-0.001324
3022.8710,-0.001210
3024.7347,-0.001465
3026.5983,-0.002013
3028.4620,-0.001915
3030.3257,-0.001347
3032.1893,-0.001088
3034.0530,-0.001390
3035.9167,-0.001462
3037.7803,-0.001211
3039.6440,-0.001307
3041.5077,-0.001399
3043.3713,-0.000783
3045.2350,-0.000736
3047.0987,-0.001339
3048.9624,-0.001390
3050.8260,-0.001337
3052.6897,-0.002115
3054.5534,-0.002517
3056.4170,-0.001973
3058.2807,-0.001818
3060.1444,-0.001922
3062.0080,-0.001944
3063.8717,-0.001963
3065.7354,-0.001405
3067.5990,-0.001293
3069.4627,-0.001861
3071.3264,-0.001844
3073.1900,-0.001318
3075.0537,-0.001404
3076.9174,-0.001746
3078.7811,-0.001580
3080.6447,-0.001564
3082.5084,-0.001964
3084.3721,-0.001773
3086.2357,-0.001787
3088.0994,-0.001928
3089.9631,-0.001517
3091.8267,-0.001431
3093.6904,-0.001819
3095.5541,-0.001885
3097.4177,-0.001803
3099.2814,-0.001879
3101.1451,-0.002059
3103.0087,-0.001716
3104.8724,-0.001322
3106.7361,-0.001649
3108.5998,-0.002102
3110.4634,-0.001928
3112.3271,-0.001727
3114.1908,-0.001579
3116.0544,-0.001031
3117.9181,-0.001219
3119.7818,-0.002025
3121.6454,-0.002036
3123.5091,-0.002047
3125.3728,-0.002082
3127.2364,-0.002129
3129.1001,-0.002111
3130.9638,-0.001894
3132.8275,-0.001922
3134.6911,-0.001940
3136.5548,-0.001726
3138.4185,-0.001744
3140.2821,-0.002164
3142.1458,-0.002449
3144.0095,-0.002246
3145.8731,-0.002174
3147.7368,-0.001867
3149.6005,-0.001577
3151.4641,-0.002022
3153.3278,-0.002459
3155.1915,-0.001910
3157.0551,-0.001971
3158.9188,-0.002186
3160.7825,-0.001866
3162.6462,-0.001678
3164.5098,-0.001730
3166.3735,-0.001713
3168.2372,-0.001796
3170.1008,-0.002071
3171.9645,-0.002389
3173.8282,-0.002378
3175.6918,-0.002302
3177.5555,-0.002065
3179.4192,-0.002079
3181.2828,-0.002079
3183.1465,-0.002377
3185.0102,-0.002584
3186.8739,-0.001748
3188.7375,-0.001224
3190.6012,-0.001812
3192.4649,-0.002005
3194.3285,-0.001920
3196.1922,-0.001545
3198.0559,-0.001460
3199.9195,-0.002023
3201.7832,-0.002219
3203.6469,-0.001926
3205.5105,-0.001946
3207.3742,-0.001843
3209.2379,-0.001820
3211.1015,-0.001637
3212.9652,-0.001841
3214.8289,-0.002318
3216.6926,-0.002372
3218.5562,-0.002014
3220.4199,-0.001703
3222.2836,-0.002054
3224.1472,-0.002852
3226.0109,-0.002552
3227.8746,-0.001881
3229.7382,-0.002192
3231.6019,-0.002412
3233.4656,-0.002224
3235.3292,-0.001949
3237.1929,-0.001959
3239.0566,-0.001918
3240.9202,-0.001101
3242.7839,-0.001854
3244.6476,-0.002992
3246.5113,-0.002322
3248.3749,-0.001655
3250.2386,-0.001814
3252.1023,-0.002284
3253.9659,-0.002774
3255.8296,-0.002961
3257.6933,-0.002348
3259.5569,-0.001712
3261.4206,-0.001629
3263.2843,-0.001747
3265.1479,-0.001720
3267.0116,-0.001434
3268.8753,-0.001937
3270.7390,-0.002338
3272.6026,-0.002753
3274.4663,-0.002987
3276.3300,-0.002779
3278.1936,-0.002248
3280.0573,-0.001836
3281.9210,-0.002348
3283.7846,-0.002853
3285.6483,-0.002504
3287.5120,-0.001911
3289.3756,-0.001562
3291.2393,-0.002244
3293.1030,-0.002355
3294.9666,-0.001422
3296.8303,-0.000714
3298.6940,-0.001037
3300.5577,-0.001534
3302.4213,-0.001793
3304.2850,-0.001376
3306.1487,-0.000974
3308.0123,-0.001982
3309.8760,-0.002540
3311.7397,-0.001581
3313.6033,-0.001356
3315.4670,-0.002152
3317.3307,-0.002445
3319.1943,-0.002547
3321.0580,-0.002733
3322.9217,-0.003051
3324.7854,-0.003458
3326.6490,-0.003289
3328.5127,-0.002772
3330.3764,-0.001855
3332.2400,-0.001980
3334.1037,-0.003278
3335.9674,-0.002989
3337.8310,-0.001949
3339.6947,-0.002711
3341.5584,-0.003355
3343.4220,-0.002903
3345.2857,-0.002563
3347.1494,-0.002682
3349.0130,-0.002369
3350.8767,-0.002754
3352.7404,-0.002478
3354.6041,-0.002394
3356.4677,-0.002376
3358.3314,-0.002396
3360.1951,-0.002567
3362.0587,-0.003122
3363.9224,-0.003845
3365.7861,-0.003053
3367.6497,-0.002123
3369.5134,-0.002590
3371.3771,-0.001968
3373.2407,-0.001437
3375.1044,-0.001940
3376.9681,-0.002890
3378.8317,-0.003046
3380.6954,-0.002890
3382.5591,-0.003067
3384.4228,-0.002965
3386.2864,-0.003465
3388.1501,-0.004069
3390.0138,-0.003601
3391.8774,-0.002822
3393.7411,-0.002097
3395.6048,-0.001251
3397.4684,-0.001812
3399.3321,-0.002399
3401.1958,-0.001588
3403.0594,-0.001989
3404.9231,-0.002837
3406.7868,-0.003467
3408.6505,-0.003059
3410.5141,-0.003206
3412.3778,-0.002902
3414.2415,-0.002526
3416.1051,-0.003175
3417.9688,-0.003528
3419.8325,-0.002466
3421.6961,-0.001506
3423.5598,-0.002273
3425.4235,-0.002412
3427.2871,-0.002138
3429.1508,-0.002710
3431.0145,-0.002563
3432.8781,-0.001970
3434.7418,-0.002612
3436.6055,-0.002764
3438.4692,-0.002060
3440.3328,-0.002195
3442.1965,-0.002997
3444.0602,-0.003153
3445.9238,-0.002741
3447.7875,-0.002393
3449.6512,-0.001760
3451.5148,-0.001775
3453.3785,-0.002042
3455.2422,-0.002359
3457.1058,-0.001779
3458.9695,-0.002043
3460.8332,-0.002791
3462.6969,-0.002614
3464.5605,-0.001611
3466.4242,-0.000881
3468.2879,-0.001375
3470.1515,-0.002780
3472.0152,-0.002598
3473.8789,-0.001506
3475.7425,-0.001586
3477.6062,-0.001854
3479.4699,-0.002176
3481.3335,-0.002414
3483.1972,-0.002267
3485.0609,-0.002039
3486.9245,-0.001894
3488.7882,-0.002787
3490.6519,-0.003714
3492.5156,-0.002668
3494.3792,-0.000415
3496.2429,-0.000114
3498.1066,-0.002206
3499.9702,-0.002874
3501.8339,-0.001504
3503.6976,-0.001490
3505.5612,-0.002164
3507.4249,-0.002422
3509.2886,-0.002137
3511.1522,-0.002585
3513.0159,-0.002419
3514.8796,-0.002050
3516.7432,-0.002108
3518.6069,-0.002344
3520.4706,-0.002818
3522.3343,-0.003770
3524.1979,-0.003096
3526.0616,-0.001453
3527.9253,-0.000546
3529.7889,-0.001226
3531.6526,-0.002254
3533.5163,-0.003031
3535.3799,-0.002460
3537.2436,-0.002055
3539.1073,-0.001469
3540.9709,-0.001130
3542.8346,-0.001974
3544.6983,-0.002520
3546.5620,-0.001968
3548.4256,-0.001449
3550.2893,-0.001545
3552.1530,-0.002809
3554.0166,-0.003731
3555.8803,-0.001972
3557.7440,-0.001578
3559.6076,-0.002712
3561.4713,-0.003641
3563.3350,-0.004676
3565.1986,-0.003592
3567.0623,-0.001070
3568.9260,-0.000631
3570.7896,-0.001419
3572.6533,-0.001452
3574.5170,-0.001286
3576.3807,-0.001725
3578.2443,-0.002274
3580.1080,-0.002601
3581.9717,-0.001953
3583.8353,-0.001789
3585.6990,-0.003019
3587.5627,-0.003394
3589.4263,-0.002787
3591.2900,-0.001946
3593.1537,-0.001959
3595.0173,-0.002422
3596.8810,-0.002546
3598.7447,-0.002187
3600.6084,-0.002442
3602.4720,-0.002304
3604.3357,-0.001631
3606.1994,-0.001675
3608.0630,-0.002204
3609.9267,-0.002170
3611.7904,-0.001293
3613.6540,-0.001647
3615.5177,-0.001768
3617.3814,-0.001346
3619.2450,-0.001905
3621.1087,-0.001647
3622.9724,-0.001459
3624.8360,-0.002216
3626.6997,-0.002620
3628.5634,-0.001553
3630.4271,-0.000990
3632.2907,-0.000451
3634.1544,-0.001518
3636.0181,-0.002409
3637.8817,-0.002487
3639.7454,-0.002846
3641.6091,-0.002428
3643.4727,-0.002066
3645.3364,-0.002669
3647.2001,-0.002931
3649.0637,-0.002437
3650.9274,-0.001445
3652.7911,-0.001463
3654.6547,-0.002004
3656.5184,-0.002262
3658.3821,-0.000980
3660.2458,-0.001243
3662.1094,-0.002389
3663.9731,-0.002674
3665.8368,-0.003105
3667.7004,-0.003510
3669.5641,-0.002541
3671.4278,-0.002187
3673.2914,-0.002411
3675.1551,-0.003531
3677.0188,-0.003148
3678.8824,-0.000828
3680.7461,-0.001864
3682.6098,-0.002588
3684.4735,-0.002838
3686.3371,-0.002256
3688.2008,-0.002295
3690.0645,-0.002865
3691.9281,-0.001783
3693.7918,-0.000663
3695.6555,-0.000842
3697.5191,-0.002001
3699.3828,-0.002085
3701.2465,-0.002878
3703.1101,-0.002998
3704.9738,-0.002683
3706.8375,-0.002575
3708.7011,-0.003027
3710.5648,-0.003361
3712.4285,-0.003096
3714.2922,-0.002224
3716.1558,-0.002147
3718.0195,-0.002727
3719.8832,-0.002982
3721.7468,-0.002975
3723.6105,-0.002923
3725.4742,-0.001783
3727.3378,-0.001758
3729.2015,-0.002733
3731.0652,-0.003369
3732.9288,-0.003474
3734.7925,-0.002828
3736.6562,-0.002300
3738.5199,-0.001397
3740.3835,-0.002268
3742.2472,-0.003618
3744.1109,-0.002567
3745.9745,-0.001206
3747.8382,-0.000387
3749.7019,-0.003122
3751.5655,-0.002784
3753.4292,-0.002177
3755.2929,-0.002207
3757.1565,-0.002724
3759.0202,-0.002289
3760.8839,-0.001827
3762.7475,-0.002144
3764.6112,-0.002212
3766.4749,-0.002429
3768.3386,-0.002072
3770.2022,-0.002150
3772.0659,-0.002302
3773.9296,-0.002334
3775.7932,-0.003444
3777.6569,-0.003483
3779.5206,-0.002551
3781.3842,-0.001512
3783.2479,-0.002300
3785.1116,-0.003378
3786.9752,-0.003095
3788.8389,-0.002309
3790.7026,-0.002403
3792.5662,-0.002732
3794.4299,-0.002898
3796.2936,-0.003185
3798.1573,-0.003103
3800.0209,-0.002111
3801.8846,-0.002280
3803.7483,-0.001733
3805.6119,-0.002025
3807.4756,-0.003230
3809.3393,-0.001928
3811.2029,-0.002015
3813.0666,-0.003013
3814.9303,-0.002936
3816.7939,-0.003262
3818.6576,-0.002173
3820.5213,-0.002567
3822.3850,-0.002820
3824.2486,-0.001027
3826.1123,-0.001578
3827.9760,-0.002745
3829.8396,-0.003349
3831.7033,-0.003051
3833.5670,-0.002243
3835.4306,-0.003156
3837.2943,-0.003502
3839.1580,-0.002918
3841.0216,-0.001873
3842.8853,-0.001424
3844.7490,-0.001750
3846.6126,-0.001606
3848.4763,-0.002406
3850.3400,-0.003564
3852.2037,-0.003785
3854.0673,-0.002881
3855.9310,0.000016
3857.7947,-0.000008
3859.6583,-0.002037
3861.5220,-0.002558
3863.3857,-0.002078
3865.2493,-0.002084
3867.1130,-0.002975
3868.9767,-0.003402
3870.8403,-0.003302
3872.7040,-0.001504
3874.5677,-0.002245
3876.4314,-0.002211
3878.2950,-0.002099
3880.1587,-0.002486
3882.0224,-0.002343
3883.8860,-0.002322
3885.7497,-0.003238
3887.6134,-0.002759
3889.4770,-0.002043
3891.3407,-0.002717
3893.2044,-0.001605
3895.0680,-0.001609
3896.9317,-0.003051
3898.7954,-0.003602
3900.6590,-0.003010
3902.5227,-0.002767
3904.3864,-0.002875
3906.2501,-0.001456
3908.1137,-0.001819
3909.9774,-0.003506
3911.8411,-0.003841
3913.7047,-0.003329
3915.5684,-0.002485
3917.4321,-0.002356
3919.2957,-0.002303
3921.1594,-0.002028
3923.0231,-0.002491
3924.8867,-0.003103
3926.7504,-0.002976
3928.6141,-0.003167
3930.4777,-0.003074
3932.3414,-0.001889
3934.2051,-0.002143
3936.0688,-0.002852
3937.9324,-0.002838
3939.7961,-0.002700
3941.6598,-0.002816
3943.5234,-0.003140
3945.3871,-0.002296
3947.2508,-0.001803
3949.1144,-0.002286
3950.9781,-0.002425
3952.8418,-0.002906
3954.7054,-0.002792
3956.5691,-0.001932
3958.4328,-0.002360
3960.2965,-0.003633
3962.1601,-0.003183
3964.0238,-0.002815
3965.8875,-0.003505
3967.7511,-0.003493
3969.6148,-0.003177
3971.4785,-0.002924
3973.3421,-0.003037
3975.2058,-0.002534
3977.0695,-0.002231
3978.9331,-0.002689
3980.7968,-0.002665
3982.6605,-0.002537
3984.5241,-0.003143
3986.3878,-0.003519
3988.2515,-0.002675
3990.1152,-0.002684
3991.9788,-0.003127
3993.8425,-0.002846
3995.7062,-0.003201
3997.5698,-0.003708
3999.4335,-0.003255
4001.2972,-0.002351
4003.1608,-0.002824
4005.0245,-0.003681
4006.8882,-0.003625
4008.7518,-0.003024
4010.6155,-0.002286
4012.4792,-0.002281
4014.3429,-0.002574
4016.2065,-0.002954
4018.0702,-0.003439
4019.9339,-0.003193
4021.7975,-0.003003
4023.6612,-0.003489
4025.5249,-0.004115
4027.3885,-0.003753
4029.2522,-0.002659
4031.1159,-0.002563
4032.9795,-0.002726
4034.8432,-0.002499
4036.7069,-0.002342
4038.5705,-0.002625
4040.4342,-0.002656
4042.2979,-0.002092
4044.1616,-0.002302
4046.0252,-0.003105
4047.8889,-0.002366
4049.7526,-0.002563
4051.6162,-0.003727
4053.4799,-0.004079
4055.3436,-0.003727
4057.2072,-0.003351
4059.0709,-0.003519
4060.9346,-0.003487
4062.7982,-0.003538
4064.6619,-0.003321
4066.5256,-0.003221
4068.3892,-0.003374
4070.2529,-0.003116
4072.1166,-0.003329
4073.9803,-0.002944
4075.8439,-0.003385
4077.7076,-0.004017
4079.5713,-0.003695
4081.4349,-0.003532
4083.2986,-0.003436
4085.1623,-0.002298
4087.0259,-0.003287
4088.8896,-0.003951
4090.7533,-0.003205
4092.6169,-0.002266
4094.4806,-0.002143
4096.3443,-0.002920
4098.2080,-0.003048
4100.0716,-0.003081
4101.9353,-0.002703
4103.7990,-0.002306
4105.6626,-0.002973
4107.5263,-0.003265
4109.3900,-0.002985
4111.2536,-0.002648
4113.1173,-0.002941
4114.9810,-0.003710
4116.8446,-0.004045
4118.7083,-0.003441
4120.5720,-0.002306
4122.4356,-0.001983
4124.2993,-0.002538
4126.1630,-0.003062
4128.0267,-0.002876
4129.8903,-0.002146
4131.7540,-0.001967
4133.6177,-0.002875
4135.4813,-0.003580
4137.3450,-0.003156
4139.2087,-0.003182
4141.0723,-0.003475
4142.9360,-0.003823
4144.7997,-0.004410
4146.6633,-0.003880
4148.5270,-0.002643
4150.3907,-0.001371
4152.2544,-0.001311
4154.1180,-0.002727
4155.9817,-0.003630
4157.8454,-0.003642
4159.7090,-0.003645
4161.5727,-0.003693
4163.4364,-0.003292
4165.3000,-0.003040
4167.1637,-0.002390
4169.0274,-0.001829
4170.8910,-0.002422
4172.7547,-0.003702
4174.6184,-0.003463
4176.4820,-0.002357
4178.3457,-0.002101
4180.2094,-0.002493
4182.0731,-0.003169
4183.9367,-0.003865
4185.8004,-0.003723
4187.6641,-0.002344
4189.5277,-0.001970
4191.3914,-0.003403
4193.2551,-0.004543
4195.1187,-0.003828
4196.9824,-0.003106
4198.8461,-0.003310
4200.7097,-0.003023
4202.5734,-0.002654
4204.4371,-0.002232
4206.3007,-0.002253
4208.1644,-0.002710
4210.0281,-0.002958
4211.8918,-0.003068
4213.7554,-0.003091
4215.6191,-0.003292
4217.4828,-0.002976
4219.3464,-0.002447
4221.2101,-0.002505
4223.0738,-0.002340
4224.9374,-0.002343
4226.8011,-0.003236
4228.6648,-0.003210
4230.5284,-0.002592
4232.3921,-0.002456
4234.2558,-0.002640
4236.1195,-0.002660
4237.9831,-0.003026
4239.8468,-0.003353
4241.7105,-0.002837
4243.5741,-0.003125
4245.4378,-0.003596
4247.3015,-0.002900
4249.1651,-0.002751
4251.0288,-0.002669
4252.8925,-0.002814
4254.7561,-0.003382
4256.6198,-0.002970
4258.4835,-0.002677
4260.3471,-0.002364
4262.2108,-0.001699
4264.0745,-0.002846
4265.9382,-0.003555
4267.8018,-0.003598
4269.6655,-0.003158
4271.5292,-0.002632
4273.3928,-0.003334
4275.2565,-0.003509
4277.1202,-0.003022
4278.9838,-0.002762
4280.8475,-0.002293
4282.7112,-0.002371
4284.5748,-0.003028
4286.4385,-0.003050
4288.3022,-0.003508
4290.1659,-0.003611
4292.0295,-0.003150
4293.8932,-0.002947
4295.7569,-0.003202
4297.6205,-0.003032
4299.4842,-0.002702
4301.3479,-0.003311
4303.2115,-0.003647
4305.0752,-0.003185
4306.9389,-0.003085
4308.8025,-0.002566
4310.6662,-0.002447
4312.5299,-0.003010
4314.3935,-0.003440
4316.2572,-0.003889
4318.1209,-0.003731
4319.9846,-0.003534
4321.8482,-0.002595
4323.7119,-0.002265
4325.5756,-0.003141
4327.4392,-0.003805
4329.3029,-0.003672
4331.1666,-0.002899
4333.0302,-0.002374
4334.8939,-0.003180
4336.7576,-0.003305
4338.6212,-0.002502
4340.4849,-0.002981
4342.3486,-0.002813
4344.2122,-0.002781
4346.0759,-0.003044
4347.9396,-0.003097
4349.8033,-0.002868
4351.6669,-0.003267
4353.5306,-0.002750
4355.3943,-0.002240
4357.2579,-0.003126
4359.1216,-0.002552
4360.9853,-0.001916
4362.8489,-0.002088
4364.7126,-0.002186
4366.5763,-0.003254
4368.4399,-0.004407
4370.3036,-0.004236
4372.1673,-0.003054
4374.0310,-0.002510
4375.8946,-0.002618
4377.7583,-0.002326
4379.6220,-0.002040
4381.4856,-0.002140
4383.3493,-0.002479
4385.2130,-0.003585
4387.0766,-0.003876
4388.9403,-0.003040
4390.8040,-0.002972
4392.6676,-0.003291
4394.5313,-0.003040
4396.3950,-0.003143
4398.2586,-0.003717
4400.1223,-0.003506
4401.9860,-0.003289
4403.8497,-0.003396
4405.7133,-0.003157
4407.5770,-0.002710
4409.4407,-0.002932
4411.3043,-0.003241
4413.1680,-0.002926
4415.0317,-0.002428
4416.8953,-0.002544
4418.7590,-0.002437
4420.6227,-0.002021
4422.4863,-0.002617
4424.3500,-0.003501
4426.2137,-0.003653
4428.0774,-0.003625
4429.9410,-0.002986
4431.8047,-0.002082
4433.6684,-0.002660
4435.5320,-0.003115
4437.3957,-0.003109
4439.2594,-0.003441
4441.1230,-0.003065
4442.9867,-0.002518
4444.8504,-0.003212
4446.7140,-0.003381
4448.5777,-0.002668
4450.4414,-0.001773
4452.3050,-0.001775
4454.1687,-0.003102
4456.0324,-0.003788
4457.8961,-0.002276
4459.7597,-0.001027
4461.6234,-0.001932
4463.4871,-0.002968
4465.3507,-0.002882
4467.2144,-0.002985
4469.0781,-0.003955
4470.9417,-0.003679
4472.8054,-0.002890
4474.6691,-0.003674
4476.5327,-0.003501
4478.3964,-0.002461
4480.2601,-0.001883
4482.1237,-0.001580
4483.9874,-0.002507
4485.8511,-0.002691
4487.7148,-0.001940
4489.5784,-0.002623
4491.4421,-0.003377
4493.3058,-0.003162
4495.1694,-0.002461
4497.0331,-0.002175
4498.8968,-0.003271
4500.7604,-0.003874
