Wavenumber,Intensity
650.4205,0.001610
652.2841,0.001641
654.1478,0.001830
656.0115,0.001018
657.8751,0.000801
659.7388,0.002341
661.6025,0.001446
663.4661,0.000667
665.3298,0.002106
667.1935,0.003933
669.0571,0.003547
670.9208,0.001623
672.7845,0.001323
674.6481,0.002681
676.5118,0.002770
678.3755,0.002088
680.2392,0.002146
682.1028,0.002481
683.9665,0.002912
685.8302,0.002776
687.6938,0.003088
689.5575,0.004046
691.4212,0.003686
693.2848,0.003148
695.1485,0.002916
697.0122,0.002550
698.8758,0.002189
700.7395,0.001340
702.6032,0.001216
704.4669,0.001956
706.3305,0.001960
708.1942,0.001588
710.0579,0.001124
711.9215,0.000802
713.7852,0.001341
715.6489,0.001904
717.5125,0.001790
719.3762,0.001490
721.2399,0.001384
723.1035,0.001028
724.9672,0.000815
726.8309,0.000880
728.6945,0.001198
730.5582,0.001554
732.4219,0.001720
734.2856,0.001976
736.1492,0.001988
738.0129,0.001599
739.8766,0.001566
741.7402,0.001756
743.6039,0.001895
745.4676,0.001875
747.3312,0.002100
749.1949,0.002403
751.0586,0.002214
752.9222,0.001791
754.7859,0.001881
756.6496,0.002041
758.5132,0.001956
760.3769,0.001946
762.2406,0.002412
764.1043,0.002928
765.9679,0.003171
767.8316,0.003266
769.6953,0.003387
771.5589,0.003763
773.4226,0.004378
775.2863,0.005038
777.1499,0.005794
779.0136,0.006274
780.8773,0.006096
782.7409,0.005469
784.6046,0.004797
786.4683,0.004346
788.3320,0.004083
790.1956,0.004126
792.0593,0.004429
793.9230,0.004964
795.7866,0.005608
797.6503,0.005829
799.5140,0.005493
801.3776,0.004843
803.2413,0.003968
805.1050,0.003131
806.9686,0.002597
808.8323,0.002262
810.6960,0.001824
812.5596,0.001412
814.4233,0.001263
816.2870,0.000971
818.1507,0.000796
820.0143,0.000627
821.8780,0.000436
823.7417,0.000607
825.6053,0.000993
827.4690,0.001100
829.3327,0.000985
831.1963,0.000929
833.0600,0.000839
834.9237,0.000818
836.7873,0.000807
838.6510,0.000609
840.5147,0.000635
842.3784,0.000731
844.2420,0.000740
846.1057,0.000840
847.9694,0.000797
849.8330,0.000792
851.6967,0.001090
853.5604,0.001202
855.4240,0.000953
857.2877,0.000871
859.1514,0.000964
861.0150,0.001034
862.8787,0.001039
864.7424,0.001076
866.6060,0.001240
868.4697,0.001216
870.3334,0.000959
872.1971,0.000922
874.0607,0.001098
875.9244,0.001188
877.7881,0.001184
879.6517,0.001205
881.5154,0.001254
883.3791,0.001410
885.2427,0.001500
887.1064,0.001414
888.9701,0.001358
890.8337,0.001361
892.6974,0.001437
894.5611,0.001509
896.4247,0.001425
898.2884,0.001276
900.1521,0.001361
902.0158,0.001603
903.8794,0.001763
905.7431,0.001678
907.6068,0.001341
909.4704,0.001377
911.3341,0.001757
913.1978,0.001961
915.0614,0.002021
916.9251,0.001930
918.7888,0.001862
920.6524,0.001871
922.5161,0.001828
924.3798,0.001884
926.2435,0.002009
928.1071,0.002088
929.9708,0.002139
931.8345,0.002117
933.6981,0.002137
935.5618,0.002314
937.4255,0.002410
939.2891,0.002426
941.1528,0.002451
943.0165,0.002445
944.8801,0.002652
946.7438,0.002844
948.6075,0.002747
950.4711,0.002646
952.3348,0.002661
954.1985,0.002721
956.0622,0.002816
957.9258,0.002835
959.7895,0.002817
961.6532,0.002845
963.5168,0.002871
965.3805,0.002862
967.2442,0.002941
969.1078,0.003067
970.9715,0.003088
972.8352,0.003096
974.6988,0.003160
976.5625,0.003262
978.4262,0.003363
980.2899,0.003392
982.1535,0.003478
984.0172,0.003597
985.8809,0.003701
987.7445,0.003865
989.6082,0.003993
991.4719,0.004013
993.3355,0.004059
995.1992,0.004230
997.0629,0.004361
998.9265,0.004404
1000.7902,0.004478
1002.6539,0.004623
1004.5175,0.004750
1006.3812,0.004805
1008.2449,0.004858
1010.1086,0.004987
1011.9722,0.005157
1013.8359,0.005199
1015.6996,0.005259
1017.5632,0.005429
1019.4269,0.005641
1021.2906,0.005802
1023.1542,0.005884
1025.0179,0.005918
1026.8816,0.006053
1028.7452,0.006301
1030.6089,0.006588
1032.4726,0.006812
1034.3362,0.006990
1036.1999,0.007269
1038.0636,0.007536
1039.9273,0.007634
1041.7909,0.007707
1043.6546,0.007959
1045.5183,0.008238
1047.3819,0.008491
1049.2456,0.008830
1051.1093,0.009159
1052.9729,0.009442
1054.8366,0.009684
1056.7003,0.009996
1058.5639,0.010370
1060.4276,0.010741
1062.2913,0.011147
1064.1550,0.011495
1066.0186,0.011833
1067.8823,0.012157
1069.7460,0.012417
1071.6096,0.012728
1073.4733,0.013143
1075.3370,0.013537
1077.2006,0.013789
1079.0643,0.014035
1080.9280,0.014199
1082.7916,0.014167
1084.6553,0.014129
1086.5190,0.014040
1088.3826,0.013803
1090.2463,0.013533
1092.1100,0.013272
1093.9737,0.013020
1095.8373,0.012722
1097.7010,0.012385
1099.5647,0.012148
1101.4283,0.011833
1103.2920,0.011363
1105.1557,0.010959
1107.0193,0.010713
1108.8830,0.010532
1110.7467,0.010244
1112.6103,0.009937
1114.4740,0.009693
1116.3377,0.009434
1118.2014,0.009146
1120.0650,0.008855
1121.9287,0.008552
1123.7924,0.008228
1125.6560,0.007940
1127.5197,0.007702
1129.3834,0.007424
1131.2470,0.007156
1133.1107,0.006908
1134.9744,0.006662
1136.8380,0.006458
1138.7017,0.006315
1140.5654,0.006138
1142.4290,0.005907
1144.2927,0.005690
1146.1564,0.005484
1148.0201,0.005308
1149.8837,0.005237
1151.7474,0.005177
1153.6111,0.005077
1155.4747,0.005025
1157.3384,0.005039
1159.2021,0.005094
1161.0657,0.005227
1162.9294,0.005312
1164.7931,0.005232
1166.6567,0.005010
1168.5204,0.004739
1170.3841,0.004522
1172.2477,0.004392
1174.1114,0.004299
1175.9751,0.004220
1177.8388,0.004146
1179.7024,0.004053
1181.5661,0.003966
1183.4298,0.003899
1185.2934,0.003864
1187.1571,0.003832
1189.0208,0.003788
1190.8844,0.003796
1192.7481,0.003747
1194.6118,0.003553
1196.4754,0.003418
1198.3391,0.003392
1200.2028,0.003315
1202.0665,0.003171
1203.9301,0.003048
1205.7938,0.002872
1207.6575,0.002654
1209.5211,0.002487
1211.3848,0.002272
1213.2485,0.001996
1215.1121,0.001788
1216.9758,0.001612
1218.8395,0.001482
1220.7031,0.001324
1222.5668,0.001096
1224.4305,0.001003
1226.2941,0.000956
1228.1578,0.000832
1230.0215,0.000725
1231.8852,0.000713
1233.7488,0.000645
1235.6125,0.000525
1237.4762,0.000521
1239.3398,0.000508
1241.2035,0.000406
1243.0672,0.000354
1244.9308,0.000328
1246.7945,0.000301
1248.6582,0.000366
1250.5218,0.000379
1252.3855,0.000165
1254.2492,0.000088
1256.1129,0.000165
1257.9765,0.000231
1259.8402,0.000282
1261.7039,0.000259
1263.5675,0.000155
1265.4312,0.000048
1267.2949,0.000041
1269.1585,0.000143
1271.0222,0.000175
1272.8859,0.000190
1274.7495,0.000155
1276.6132,-0.000040
1278.4769,-0.000041
1280.3405,0.000083
1282.2042,0.000009
1284.0679,-0.000108
1285.9316,-0.000126
1287.7952,-0.000107
1289.6589,-0.000097
1291.5226,-0.000095
1293.3862,-0.000087
1295.2499,-0.000120
1297.1136,-0.000160
1298.9772,-0.000137
1300.8409,-0.000167
1302.7046,-0.000221
1304.5682,-0.000235
1306.4319,-0.000213
1308.2956,-0.000169
1310.1592,-0.000128
1312.0229,-0.000200
1313.8866,-0.000219
1315.7503,-0.000075
1317.6139,-0.000032
1319.4776,-0.000069
1321.3413,-0.000136
1323.2049,-0.000212
1325.0686,-0.000321
1326.9323,-0.000355
1328.7959,-0.000226
1330.6596,-0.000141
1332.5233,-0.000239
1334.3869,-0.000322
1336.2506,-0.000252
1338.1143,0.000004
1339.9780,0.000147
1341.8416,-0.000019
1343.7053,-0.000290
1345.5690,-0.000262
1347.4326,-0.000160
1349.2963,-0.000196
1351.1600,-0.000249
1353.0236,-0.000294
1354.8873,-0.000264
1356.7510,-0.000302
1358.6146,-0.000311
1360.4783,-0.000133
1362.3420,-0.000044
1364.2056,-0.000076
1366.0693,-0.000149
1367.9330,-0.000245
1369.7967,-0.000194
1371.6603,-0.000188
1373.5240,-0.000058
1375.3877,0.000151
1377.2513,-0.000017
1379.1150,-0.000350
1380.9787,-0.000251
1382.8423,-0.000359
1384.7060,-0.000351
1386.5697,-0.000321
1388.4333,-0.000237
1390.2970,-0.000298
1392.1607,-0.000491
1394.0244,-0.000465
1395.8880,-0.000075
1397.7517,0.000064
1399.6154,-0.000110
1401.4790,0.000110
1403.3427,-0.000217
1405.2064,-0.000175
1407.0700,-0.000100
1408.9337,-0.000349
1410.7974,-0.000387
1412.6610,-0.000203
1414.5247,-0.000380
1416.3884,-0.000520
1418.2520,-0.000390
1420.1157,0.000217
1421.9794,0.000380
1423.8431,-0.000162
1425.7067,-0.000086
1427.5704,-0.000206
1429.4341,-0.000225
1431.2977,-0.000072
1433.1614,-0.000272
1435.0251,-0.000418
1436.8887,-0.000200
1438.7524,0.000324
1440.6161,-0.000262
1442.4797,-0.000486
1444.3434,-0.000411
1446.2071,-0.000391
1448.0707,-0.000114
1449.9344,0.000097
1451.7981,-0.000183
1453.6618,-0.000274
1455.5254,-0.000441
1457.3891,0.000079
1459.2528,0.000969
1461.1164,-0.000012
1462.9801,-0.000457
1464.8438,-0.000239
1466.7074,0.000281
1468.5711,-0.000405
1470.4348,-0.000845
1472.2984,-0.000932
1474.1621,0.000344
1476.0258,0.000404
1477.8895,0.000182
1479.7531,-0.000036
1481.6168,-0.000298
1483.4805,-0.000274
1485.3441,-0.000544
1487.2078,-0.000520
1489.0715,0.000142
1490.9351,0.000364
1492.7988,0.000091
1494.6625,-0.000513
1496.5261,-0.000446
1498.3898,0.000280
1500.2535,0.000125
1502.1171,-0.000481
1503.9808,-0.000942
1505.8445,-0.000916
1507.7082,0.001107
1509.5718,0.001275
1511.4355,0.000186
1513.2992,0.000061
1515.1628,-0.000112
1517.0265,-0.000329
1518.8902,0.000185
1520.7538,-0.000392
1522.6175,0.000055
1524.4812,0.000225
1526.3448,0.000056
1528.2085,0.000368
1530.0722,-0.000177
1531.9359,-0.000138
1533.7995,0.000243
1535.6632,0.000345
1537.5269,-0.001100
1539.3905,-0.001320
1541.2542,0.000626
1543.1179,0.000844
1544.9815,0.000370
1546.8452,0.000479
1548.7089,-0.000022
1550.5725,-0.000364
1552.4362,-0.000275
1554.2999,-0.000860
1556.1635,-0.000605
1558.0272,-0.001071
1559.8909,0.001073
1561.7546,0.001393
1563.6182,-0.000309
1565.4819,-0.000579
1567.3456,-0.000194
1569.2092,-0.000163
1571.0729,0.000410
1572.9366,-0.000099
1574.8002,-0.001028
1576.6639,-0.000456
1578.5276,0.000466
1580.3912,-0.000200
1582.2549,-0.000344
1584.1186,-0.000327
1585.9822,-0.000437
1587.8459,-0.000568
1589.7096,-0.000673
1591.5733,-0.000500
1593.4369,-0.000604
1595.3006,-0.000537
1597.1643,-0.000381
1599.0279,-0.000373
1600.8916,-0.000506
1602.7553,-0.000518
1604.6189,-0.000498
1606.4826,-0.000425
1608.3463,-0.000368
1610.2099,-0.000250
1612.0736,-0.000573
1613.9373,-0.000733
1615.8010,-0.001158
1617.6646,-0.000110
1619.5283,0.000258
1621.3920,-0.000678
1623.2556,-0.000677
1625.1193,0.000184
1626.9830,-0.000172
1628.8466,-0.000165
1630.7103,-0.000017
1632.5740,-0.000519
1634.4376,-0.001186
1636.3013,-0.000074
1638.1650,0.000807
1640.0286,-0.000124
1641.8923,-0.000381
1643.7560,-0.000750
1645.6197,-0.000772
1647.4833,0.000392
1649.3470,0.000324
1651.2107,-0.001073
1653.0743,-0.000952
1654.9380,0.001525
1656.8017,0.000341
1658.6653,-0.000548
1660.5290,-0.000684
1662.3927,-0.000667
1664.2563,0.000243
1666.1200,-0.000100
1667.9837,-0.000865
1669.8474,-0.000631
1671.7110,-0.000061
1673.5747,-0.000326
1675.4384,-0.000206
1677.3020,0.000467
1679.1657,-0.000332
1681.0294,-0.000348
1682.8930,-0.000562
1684.7567,0.000162
1686.6204,0.001030
1688.4840,-0.000199
1690.3477,-0.000123
1692.2114,-0.000411
1694.0750,-0.000973
1695.9387,-0.000628
1697.8024,0.000671
1699.6661,-0.000982
1701.5297,0.000944
1703.3934,0.000535
1705.2571,-0.000810
1707.1207,-0.000261
1708.9844,-0.000297
1710.8481,-0.000423
1712.7117,-0.000431
1714.5754,-0.000474
1716.4391,-0.000289
1718.3027,-0.000027
1720.1664,0.000567
1722.0301,-0.000226
1723.8937,-0.000343
1725.7574,-0.000304
1727.6211,-0.000507
1729.4848,-0.000675
1731.3484,-0.000420
1733.2121,-0.000588
1735.0758,0.000646
1736.9394,0.000442
1738.8031,-0.000937
1740.6668,-0.000118
1742.5304,-0.000108
1744.3941,-0.000329
1746.2578,-0.000367
1748.1214,-0.000290
1749.9851,0.000420
1751.8488,0.000706
1753.7125,0.000276
1755.5761,-0.000642
1757.4398,-0.000323
1759.3035,-0.000268
1761.1671,-0.000672
1763.0308,-0.000051
1764.8945,-0.000180
1766.7581,-0.000842
1768.6218,-0.000596
1770.4855,-0.000425
1772.3491,-0.000565
1774.2128,0.000156
1776.0765,-0.000313
1777.9401,-0.000402
1779.8038,-0.000608
1781.6675,-0.000336
1783.5312,-0.000349
1785.3948,-0.000343
1787.2585,-0.000109
1789.1222,-0.000454
1790.9858,-0.000922
1792.8495,-0.000263
1794.7132,0.000211
1796.5768,-0.000374
1798.4405,-0.000356
1800.3042,-0.000171
1802.1678,-0.000053
1804.0315,-0.000246
1805.8952,-0.000608
1807.7589,-0.000672
1809.6225,-0.000569
1811.4862,-0.000470
1813.3499,-0.000483
1815.2135,-0.000689
1817.0772,-0.000636
1818.9409,-0.000496
1820.8045,-0.000353
1822.6682,-0.000321
1824.5319,-0.000361
1826.3955,0.000000
1828.2592,-0.000449
1830.1229,-0.000608
1831.9865,-0.000117
1833.8502,-0.000610
1835.7139,-0.000760
1837.5776,-0.000697
1839.4412,-0.000610
1841.3049,-0.000622
1843.1686,-0.000785
1845.0322,-0.000033
1846.8959,0.000323
1848.7596,-0.000117
1850.6232,-0.000072
1852.4869,-0.000388
1854.3506,-0.000509
1856.2142,-0.000618
1858.0779,-0.000398
1859.9416,-0.000356
1861.8052,-0.000532
1863.6689,-0.000681
1865.5326,-0.000444
1867.3963,-0.000396
1869.2599,-0.000168
1871.1236,-0.000057
1872.9873,-0.000374
1874.8509,-0.000712
1876.7146,-0.000592
1878.5783,-0.000367
1880.4419,-0.000334
1882.3056,-0.000619
1884.1693,-0.000589
1886.0329,-0.000332
1887.8966,-0.000418
1889.7603,-0.000346
1891.6240,-0.000104
1893.4876,-0.000614
1895.3513,-0.000618
1897.2150,-0.000378
1899.0786,-0.000293
1900.9423,-0.000616
1902.8060,-0.000643
1904.6696,-0.000596
1906.5333,-0.000616
1908.3970,-0.000712
1910.2606,-0.000634
1912.1243,-0.000476
1913.9880,-0.000545
1915.8516,-0.000898
1917.7153,-0.001039
1919.5790,-0.000559
1921.4427,-0.000301
1923.3063,-0.000257
1925.1700,-0.000285
1927.0337,-0.000496
1928.8973,-0.000337
1930.7610,-0.000353
1932.6247,-0.000516
1934.4883,-0.000555
1936.3520,-0.000178
1938.2157,-0.000455
1940.0793,-0.001072
1941.9430,-0.001358
1943.8067,-0.000635
1945.6704,-0.000691
1947.5340,-0.000951
1949.3977,-0.000518
1951.2614,-0.000431
1953.1250,-0.000667
1954.9887,-0.000816
1956.8524,-0.000353
1958.7160,0.000291
1960.5797,0.000233
1962.4434,-0.000649
1964.3070,-0.001318
1966.1707,-0.001704
1968.0344,-0.002122
1969.8980,-0.001407
1971.7617,-0.000373
1973.6254,-0.000828
1975.4891,-0.000811
1977.3527,-0.000156
1979.2164,-0.000316
1981.0801,-0.000726
1982.9437,-0.000758
1984.8074,-0.000193
1986.6711,-0.000359
1988.5347,-0.000083
1990.3984,0.000032
1992.2621,-0.000093
1994.1257,-0.000515
1995.9894,-0.000513
1997.8531,0.000060
1999.7167,0.000249
2001.5804,-0.000730
2003.4441,-0.001735
2005.3078,-0.001399
2007.1714,-0.000758
2009.0351,-0.000858
2010.8988,-0.000849
2012.7624,-0.000906
2014.6261,-0.001205
2016.4898,-0.000426
2018.3534,0.000609
2020.2171,-0.000053
2022.0808,-0.000668
2023.9444,-0.000522
2025.8081,-0.001105
2027.6718,-0.001678
2029.5355,-0.001061
2031.3991,-0.000730
2033.2628,-0.000959
2035.1265,-0.000413
2036.9901,-0.000132
2038.8538,-0.000488
2040.7175,-0.000175
2042.5811,-0.000048
2044.4448,-0.000319
2046.3085,-0.000835
2048.1721,-0.001207
2050.0358,-0.000907
2051.8995,-0.000255
2053.7631,-0.000289
2055.6268,-0.000532
2057.4905,-0.001018
2059.3542,-0.000662
2061.2178,-0.000690
2063.0815,-0.000861
2064.9452,-0.001005
2066.8088,-0.001103
2068.6725,-0.001252
2070.5362,-0.000888
2072.3998,-0.000490
2074.2635,-0.000279
2076.1272,-0.000635
2077.9908,-0.001263
2079.8545,-0.001562
2081.7182,-0.001226
2083.5819,-0.001018
2085.4455,-0.000989
2087.3092,-0.000850
2089.1729,-0.000724
2091.0365,-0.000931
2092.9002,-0.001068
2094.7639,-0.001040
2096.6275,-0.000964
2098.4912,-0.000919
2100.3549,-0.000820
2102.2185,-0.000640
2104.0822,-0.000416
2105.9459,-0.000342
2107.8095,-0.000522
2109.6732,-0.000701
2111.5369,-0.001084
2113.4006,-0.000815
2115.2642,-0.000547
2117.1279,-0.001008
2118.9916,-0.001108
2120.8552,-0.000670
2122.7189,-0.000138
2124.5826,-0.000345
2126.4462,-0.001187
2128.3099,-0.001368
2130.1736,-0.000822
2132.0372,-0.001166
2133.9009,-0.001291
2135.7646,-0.001338
2137.6282,-0.001165
2139.4919,-0.001060
2141.3556,-0.001207
2143.2193,-0.001001
2145.0829,-0.000857
2146.9466,-0.000915
2148.8103,-0.001472
2150.6739,-0.002432
2152.5376,-0.001952
2154.4013,-0.001595
2156.2649,-0.001708
2158.1286,-0.001383
2159.9923,-0.000819
2161.8559,-0.000627
2163.7196,-0.000867
2165.5833,-0.001132
2167.4470,-0.000711
2169.3106,-0.000590
2171.1743,-0.000326
2173.0380,-0.001142
2174.9016,-0.001267
2176.7653,-0.000691
2178.6290,-0.000121
2180.4926,-0.000799
2182.3563,-0.001785
2184.2200,-0.001840
2186.0836,-0.001331
2187.9473,-0.001220
2189.8110,-0.000808
2191.6746,-0.000772
2193.5383,-0.000979
2195.4020,-0.001285
2197.2657,-0.001712
2199.1293,-0.001665
2200.9930,-0.001133
2202.8567,-0.000671
2204.7203,-0.000657
2206.5840,-0.001304
2208.4477,-0.001797
2210.3113,-0.001666
2212.1750,-0.001329
2214.0387,-0.000754
2215.9023,-0.000407
2217.7660,-0.000519
2219.6297,-0.000273
2221.4934,-0.000436
2223.3570,-0.000973
2225.2207,-0.001079
2227.0844,-0.001125
2228.9480,-0.001004
2230.8117,-0.000376
2232.6754,-0.000266
2234.5390,-0.000909
2236.4027,-0.000986
2238.2664,-0.000977
2240.1300,-0.001353
2241.9937,-0.001306
2243.8574,-0.000911
2245.7210,-0.000638
2247.5847,-0.000624
2249.4484,-0.001124
2251.3121,-0.001202
2253.1757,-0.001232
2255.0394,-0.001333
2256.9031,-0.001121
2258.7667,-0.000942
2260.6304,-0.000811
2262.4941,-0.001071
2264.3577,-0.001123
2266.2214,-0.001073
2268.0851,-0.001125
2269.9487,-0.000915
2271.8124,-0.000863
2273.6761,-0.001169
2275.5397,-0.001064
2277.4034,-0.001156
2279.2671,-0.000992
2281.1308,-0.000841
2282.9944,-0.000925
2284.8581,-0.000881
2286.7218,-0.000932
2288.5854,-0.001122
2290.4491,-0.000860
2292.3128,-0.000603
2294.1764,-0.000797
2296.0401,-0.001257
2297.9038,-0.001089
2299.7674,-0.000699
2301.6311,-0.000542
2303.4948,-0.000246
2305.3585,0.000006
2307.2221,-0.000165
2309.0858,-0.000265
2310.9495,0.000062
2312.8131,0.000298
2314.6768,0.000288
2316.5405,0.000559
2318.4041,0.000511
2320.2678,0.000681
2322.1315,0.000930
2323.9951,0.001164
2325.8588,0.001715
2327.7225,0.001866
2329.5861,0.001654
2331.4498,0.001679
2333.3135,0.001732
2335.1772,0.001773
2337.0408,0.001771
2338.9045,0.001695
2340.7682,0.001933
2342.6318,0.002245
2344.4955,0.001961
2346.3592,0.001550
2348.2228,0.000732
2350.0865,0.000391
2351.9502,0.000858
2353.8138,0.000961
2355.6775,0.001804
2357.5412,0.003075
2359.4049,0.003176
2361.2685,0.002850
2363.1322,0.003231
2364.9959,0.003740
2366.8595,0.003076
2368.7232,0.002050
2370.5869,0.001899
2372.4505,0.001809
2374.3142,0.001451
2376.1779,0.001025
2378.0415,0.000296
2379.9052,-0.000230
2381.7689,-0.000493
2383.6325,-0.000779
2385.4962,-0.001198
2387.3599,-0.001402
2389.2236,-0.001279
2391.0872,-0.001219
2392.9509,-0.001350
2394.8146,-0.001337
2396.6782,-0.001318
2398.5419,-0.001444
2400.4056,-0.001548
2402.2692,-0.001572
2404.1329,-0.001613
2405.9966,-0.001576
2407.8602,-0.001667
2409.7239,-0.001671
2411.5876,-0.001446
2413.4512,-0.001161
2415.3149,-0.001041
2417.1786,-0.001438
2419.0423,-0.001661
2420.9059,-0.001563
2422.7696,-0.001473
2424.6333,-0.001097
2426.4969,-0.001152
2428.3606,-0.001029
2430.2243,-0.001148
2432.0879,-0.001546
2433.9516,-0.001696
2435.8153,-0.001455
2437.6789,-0.001468
2439.5426,-0.001764
2441.4063,-0.001534
2443.2700,-0.001494
2445.1336,-0.001656
2446.9973,-0.001322
2448.8610,-0.001058
2450.7246,-0.001032
2452.5883,-0.001394
2454.4520,-0.001537
2456.3156,-0.001229
2458.1793,-0.001485
2460.0430,-0.001759
2461.9066,-0.001264
2463.7703,-0.001079
2465.6340,-0.001248
2467.4976,-0.001440
2469.3613,-0.001423
2471.2250,-0.001474
2473.0887,-0.001256
2474.9523,-0.000964
2476.8160,-0.001030
2478.6797,-0.001469
2480.5433,-0.001616
2482.4070,-0.001495
2484.2707,-0.001680
2486.1343,-0.001602
2487.9980,-0.001428
2489.8617,-0.001577
2491.7253,-0.001469
2493.5890,-0.001166
2495.4527,-0.001406
2497.3164,-0.001786
2499.1800,-0.001854
2501.0437,-0.001675
2502.9074,-0.001309
2504.7710,-0.001139
2506.6347,-0.001337
2508.4984,-0.001491
2510.3620,-0.001307
2512.2257,-0.001133
2514.0894,-0.000922
2515.9530,-0.000880
2517.8167,-0.001297
2519.6804,-0.001318
2521.5440,-0.001341
2523.4077,-0.001401
2525.2714,-0.001354
2527.1351,-0.001301
2528.9987,-0.000973
2530.8624,-0.000797
2532.7261,-0.001003
2534.5897,-0.001263
2536.4534,-0.001375
2538.3171,-0.001436
2540.1807,-0.001335
2542.0444,-0.001239
2543.9081,-0.001373
2545.7717,-0.001727
2547.6354,-0.001876
2549.4991,-0.001549
2551.3627,-0.000976
2553.2264,-0.000889
2555.0901,-0.001198
2556.9538,-0.001401
2558.8174,-0.001167
2560.6811,-0.001221
2562.5448,-0.001439
2564.4084,-0.001554
2566.2721,-0.001625
2568.1358,-0.001885
2569.9994,-0.001939
2571.8631,-0.001610
2573.7268,-0.001536
2575.5904,-0.001652
2577.4541,-0.001439
2579.3178,-0.001372
2581.1815,-0.001276
2583.0451,-0.001215
2584.9088,-0.001105
2586.7725,-0.001397
2588.6361,-0.001495
2590.4998,-0.001245
2592.3635,-0.001357
2594.2271,-0.001452
2596.0908,-0.001193
2597.9545,-0.001270
2599.8181,-0.001755
2601.6818,-0.001431
2603.5455,-0.000898
2605.4091,-0.000865
2607.2728,-0.001248
2609.1365,-0.002042
2611.0002,-0.002078
2612.8638,-0.001550
2614.7275,-0.001376
2616.5912,-0.001541
2618.4548,-0.001540
2620.3185,-0.001346
2622.1822,-0.001161
2624.0458,-0.001260
2625.9095,-0.001576
2627.7732,-0.001507
2629.6368,-0.001291
2631.5005,-0.001378
2633.3642,-0.001674
2635.2279,-0.001871
2637.0915,-0.001688
2638.9552,-0.001633
2640.8189,-0.001636
2642.6825,-0.001412
2644.5462,-0.001409
2646.4099,-0.001588
2648.2735,-0.001551
2650.1372,-0.001255
2652.0009,-0.001159
2653.8645,-0.001341
2655.7282,-0.001522
2657.5919,-0.001627
2659.4555,-0.001612
2661.3192,-0.001594
2663.1829,-0.001396
2665.0466,-0.001382
2666.9102,-0.001650
2668.7739,-0.001844
2670.6376,-0.001793
2672.5012,-0.001540
2674.3649,-0.001502
2676.2286,-0.001813
2678.0922,-0.001936
2679.9559,-0.001754
2681.8196,-0.001556
2683.6832,-0.001812
2685.5469,-0.001927
2687.4106,-0.001712
2689.2742,-0.001582
2691.1379,-0.001751
2693.0016,-0.001769
2694.8653,-0.001792
2696.7289,-0.001886
2698.5926,-0.001764
2700.4563,-0.001694
2702.3199,-0.001615
2704.1836,-0.001511
2706.0473,-0.001564
2707.9109,-0.001416
2709.7746,-0.001485
2711.6383,-0.001736
2713.5019,-0.001705
2715.3656,-0.001739
2717.2293,-0.001448
2719.0930,-0.001241
2720.9566,-0.001514
2722.8203,-0.001479
2724.6840,-0.001400
2726.5476,-0.001646
2728.4113,-0.001848
2730.2750,-0.001872
2732.1386,-0.001675
2734.0023,-0.001686
2735.8660,-0.001907
2737.7296,-0.001905
2739.5933,-0.001921
2741.4570,-0.001839
2743.3206,-0.001764
2745.1843,-0.001666
2747.0480,-0.001433
2748.9117,-0.001469
2750.7753,-0.001935
2752.6390,-0.002173
2754.5027,-0.002075
2756.3663,-0.001757
2758.2300,-0.001776
2760.0937,-0.001997
2761.9573,-0.002127
2763.8210,-0.002043
2765.6847,-0.001829
2767.5483,-0.001762
2769.4120,-0.001795
2771.2757,-0.001907
2773.1394,-0.001874
2775.0030,-0.001698
2776.8667,-0.001860
2778.7304,-0.001953
2780.5940,-0.002000
2782.4577,-0.002160
2784.3214,-0.002032
2786.1850,-0.001835
2788.0487,-0.001728
2789.9124,-0.001578
2791.7760,-0.001433
2793.6397,-0.001451
2795.5034,-0.001845
2797.3670,-0.002045
2799.2307,-0.002051
2801.0944,-0.001892
2802.9581,-0.001966
2804.8217,-0.002129
2806.6854,-0.002141
2808.5491,-0.001983
2810.4127,-0.001837
2812.2764,-0.001908
2814.1401,-0.001943
2816.0037,-0.001672
2817.8674,-0.001501
2819.7311,-0.001561
2821.5947,-0.001882
2823.4584,-0.002024
2825.3221,-0.001876
2827.1857,-0.001861
2829.0494,-0.001907
2830.9131,-0.001798
2832.7768,-0.001863
2834.6404,-0.001838
2836.5041,-0.001952
2838.3678,-0.002061
2840.2314,-0.002015
2842.0951,-0.001888
2843.9588,-0.001569
2845.8224,-0.001780
2847.6861,-0.002281
2849.5498,-0.002062
2851.4134,-0.001939
2853.2771,-0.002110
2855.1408,-0.002186
2857.0045,-0.001941
2858.8681,-0.001937
2860.7318,-0.002024
2862.5955,-0.001856
2864.4591,-0.002024
2866.3228,-0.002164
2868.1865,-0.001896
2870.0501,-0.001644
2871.9138,-0.001602
2873.7775,-0.001696
2875.6411,-0.001548
2877.5048,-0.001589
2879.3685,-0.001882
2881.2321,-0.002250
2883.0958,-0.002282
2884.9595,-0.002038
2886.8232,-0.001790
2888.6868,-0.002027
2890.5505,-0.002512
2892.4142,-0.002259
2894.2778,-0.001653
2896.1415,-0.001777
2898.0052,-0.001894
2899.8688,-0.001841
2901.7325,-0.002016
2903.5962,-0.002029
2905.4598,-0.002196
2907.3235,-0.002309
2909.1872,-0.002136
2911.0509,-0.002330
2912.9145,-0.002398
2914.7782,-0.002398
2916.6419,-0.002175
2918.5055,-0.001860
2920.3692,-0.001746
2922.2329,-0.001915
2924.0965,-0.002036
2925.9602,-0.002237
2927.8239,-0.002566
2929.6875,-0.002579
2931.5512,-0.001977
2933.4149,-0.001199
2935.2785,-0.001188
2937.1422,-0.001887
2939.0059,-0.001912
2940.8696,-0.001823
2942.7332,-0.001992
2944.5969,-0.001943
2946.4606,-0.001829
2948.3242,-0.001873
2950.1879,-0.002002
2952.0516,-0.002001
2953.9152,-0.001679
2955.7789,-0.001863
2957.6426,-0.002408
2959.5062,-0.002294
2961.3699,-0.001724
2963.2336,-0.001749
2965.0972,-0.001915
2966.9609,-0.001791
2968.8246,-0.001764
2970.6883,-0.001944
2972.5519,-0.002321
2974.4156,-0.002490
2976.2793,-0.001900
2978.1429,-0.001762
2980.0066,-0.002127
2981.8703,-0.002120
2983.7339,-0.001991
2985.5976,-0.001947
2987.4613,-0.002142
2989.3249,-0.002387
2991.1886,-0.002244
2993.0523,-0.002092
2994.9160,-0.001883
2996.7796,-0.001763
2998.6433,-0.001929
3000.5070,-0.002136
3002.3706,-0.002300
3004.2343,-0.002548
3006.0980,-0.002405
3007.9616,-0.002353
3009.8253,-0.002462
3011.6890,-0.001922
3013.5526,-0.001609
3015.4163,-0.002231
3017.2800,-0.002395
3019.1436,-0.001848
3021.0073,-0.001796
3022.8710,-0.002159
3024.7347,-0.002258
3026.5983,-0.002505
3028.4620,-0.002647
3030.3257,-0.002572
3032.1893,-0.002146
3034.0530,-0.001658
3035.9167,-0.001749
3037.7803,-0.002309
3039.6440,-0.002688
3041.5077,-0.002533
3043.3713,-0.002166
3045.2350,-0.002136
3047.0987,-0.002010
3048.9624,-0.002060
3050.8260,-0.002204
3052.6897,-0.002492
3054.5534,-0.002511
3056.4170,-0.002065
3058.2807,-0.001984
3060.1444,-0.002263
3062.0080,-0.002462
3063.8717,-0.002411
3065.7354,-0.002114
3067.5990,-0.002358
3069.4627,-0.002850
3071.3264,-0.002730
3073.1900,-0.002193
3075.0537,-0.001756
3076.9174,-0.001346
3078.7811,-0.001496
3080.6447,-0.002463
3082.5084,-0.003019
3084.3721,-0.002410
3086.2357,-0.002400
3088.0994,-0.002828
3089.9631,-0.002672
3091.8267,-0.002488
3093.6904,-0.002758
3095.5541,-0.002895
3097.4177,-0.002700
3099.2814,-0.002735
3101.1451,-0.002812
3103.0087,-0.002279
3104.8724,-0.001895
3106.7361,-0.001785
3108.5998,-0.001790
3110.4634,-0.002208
3112.3271,-0.003105
3114.1908,-0.003210
3116.0544,-0.002267
3117.9181,-0.002060
3119.7818,-0.002307
3121.6454,-0.002374
3123.5091,-0.002976
3125.3728,-0.003270
3127.2364,-0.003360
3129.1001,-0.003225
3130.9638,-0.002997
3132.8275,-0.002711
3134.6911,-0.002303
3136.5548,-0.002053
3138.4185,-0.002033
3140.2821,-0.002339
3142.1458,-0.003095
3144.0095,-0.003218
3145.8731,-0.002544
3147.7368,-0.002170
3149.6005,-0.002104
3151.4641,-0.002447
3153.3278,-0.002893
3155.1915,-0.002321
3157.0551,-0.002321
3158.9188,-0.002587
3160.7825,-0.002322
3162.6462,-0.002111
3164.5098,-0.002073
3166.3735,-0.002068
3168.2372,-0.002378
3170.1008,-0.002872
3171.9645,-0.003098
3173.8282,-0.002767
3175.6918,-0.002365
3177.5555,-0.002169
3179.4192,-0.002637
3181.2828,-0.003103
3183.1465,-0.003446
3185.0102,-0.003210
3186.8739,-0.002380
3188.7375,-0.001868
3190.6012,-0.002153
3192.4649,-0.002162
3194.3285,-0.001868
3196.1922,-0.001904
3198.0559,-0.002484
3199.9195,-0.002987
3201.7832,-0.002713
3203.6469,-0.002397
3205.5105,-0.002448
3207.3742,-0.002118
3209.2379,-0.002360
3211.1015,-0.002574
3212.9652,-0.002523
3214.8289,-0.002547
3216.6926,-0.002313
3218.5562,-0.002213
3220.4199,-0.002487
3222.2836,-0.002876
3224.1472,-0.002854
3226.0109,-0.002022
3227.8746,-0.001900
3229.7382,-0.002597
3231.6019,-0.003248
3233.4656,-0.003318
3235.3292,-0.002670
3237.1929,-0.002348
3239.0566,-0.002313
3240.9202,-0.001761
3242.7839,-0.002316
3244.6476,-0.003257
3246.5113,-0.002887
3248.3749,-0.002217
3250.2386,-0.002415
3252.1023,-0.002759
3253.9659,-0.003136
3255.8296,-0.003267
3257.6933,-0.002649
3259.5569,-0.002139
3261.4206,-0.002407
3263.2843,-0.002736
3265.1479,-0.002911
3267.0116,-0.002339
3268.8753,-0.002379
3270.7390,-0.002920
3272.6026,-0.003338
3274.4663,-0.003352
3276.3300,-0.002916
3278.1936,-0.002595
3280.0573,-0.002348
3281.9210,-0.002885
3283.7846,-0.003374
3285.6483,-0.002960
3287.5120,-0.002450
3289.3756,-0.002214
3291.2393,-0.002701
3293.1030,-0.003053
3294.9666,-0.002774
3296.8303,-0.001614
3298.6940,-0.001553
3300.5577,-0.002290
3302.4213,-0.003143
3304.2850,-0.002917
3306.1487,-0.001696
3308.0123,-0.002230
3309.8760,-0.002698
3311.7397,-0.001871
3313.6033,-0.002111
3315.4670,-0.002672
3317.3307,-0.002827
3319.1943,-0.002965
3321.0580,-0.002947
3322.9217,-0.002973
3324.7854,-0.003879
3326.6490,-0.004004
3328.5127,-0.002500
3330.3764,-0.001586
3332.2400,-0.002521
3334.1037,-0.003292
3335.9674,-0.002526
3337.8310,-0.002051
3339.6947,-0.003107
3341.5584,-0.003302
3343.4220,-0.002915
3345.2857,-0.002836
3347.1494,-0.002869
3349.0130,-0.002470
3350.8767,-0.002937
3352.7404,-0.003239
3354.6041,-0.003139
3356.4677,-0.002802
3358.3314,-0.002390
3360.1951,-0.002446
3362.0587,-0.003411
3363.9224,-0.003785
3365.7861,-0.003637
3367.6497,-0.003480
3369.5134,-0.003465
3371.3771,-0.003121
3373.2407,-0.002611
3375.1044,-0.002158
3376.9681,-0.002066
3378.8317,-0.001963
3380.6954,-0.002047
3382.5591,-0.002043
3384.4228,-0.002034
3386.2864,-0.002545
3388.1501,-0.003796
3390.0138,-0.004203
3391.8774,-0.003405
3393.7411,-0.002542
3395.6048,-0.002043
3397.4684,-0.002946
3399.3321,-0.002729
3401.1958,-0.001068
3403.0594,-0.001418
3404.9231,-0.002037
3406.7868,-0.002140
3408.6505,-0.002832
3410.5141,-0.003929
3412.3778,-0.002954
3414.2415,-0.002030
3416.1051,-0.002565
3417.9688,-0.003277
3419.8325,-0.003123
3421.6961,-0.002630
3423.5598,-0.003503
3425.4235,-0.003860
3427.2871,-0.001927
3429.1508,-0.000520
3431.0145,-0.001162
3432.8781,-0.002451
3434.7418,-0.002784
3436.6055,-0.002016
3438.4692,-0.001692
3440.3328,-0.003268
3442.1965,-0.003752
3444.0602,-0.002520
3445.9238,-0.002382
3447.7875,-0.002532
3449.6512,-0.003037
3451.5148,-0.003425
3453.3785,-0.002117
3455.2422,-0.001735
3457.1058,-0.001938
3458.9695,-0.002996
3460.8332,-0.003638
3462.6969,-0.002580
3464.5605,-0.001914
3466.4242,-0.001921
3468.2879,-0.001751
3470.1515,-0.002937
3472.0152,-0.002661
3473.8789,-0.000990
3475.7425,-0.000551
3477.6062,-0.001683
3479.4699,-0.002592
3481.3335,-0.002448
3483.1972,-0.002359
3485.0609,-0.003014
3486.9245,-0.003755
3488.7882,-0.003560
3490.6519,-0.002877
3492.5156,-0.001933
3494.3792,-0.001175
3496.2429,-0.001163
3498.1066,-0.002064
3499.9702,-0.002579
3501.8339,-0.001977
3503.6976,-0.002678
3505.5612,-0.003434
3507.4249,-0.002612
3509.2886,-0.002060
3511.1522,-0.003535
3513.0159,-0.003302
3514.8796,-0.001590
3516.7432,-0.000801
3518.6069,-0.001260
3520.4706,-0.002541
3522.3343,-0.003026
3524.1979,-0.002441
3526.0616,-0.001415
3527.9253,-0.001341
3529.7889,-0.002083
3531.6526,-0.001792
3533.5163,-0.002409
3535.3799,-0.002882
3537.2436,-0.002415
3539.1073,-0.001879
3540.9709,-0.001177
3542.8346,-0.001034
3544.6983,-0.002108
3546.5620,-0.001931
3548.4256,-0.001124
3550.2893,-0.000952
3552.1530,-0.001800
3554.0166,-0.002391
3555.8803,-0.001629
3557.7440,-0.001851
3559.6076,-0.002556
3561.4713,-0.002259
3563.3350,-0.003917
3565.1986,-0.004540
3567.0623,-0.002504
3568.9260,-0.001593
3570.7896,-0.002450
3572.6533,-0.001754
3574.5170,-0.000879
3576.3807,-0.000860
3578.2443,-0.000990
3580.1080,-0.002211
3581.9717,-0.002930
3583.8353,-0.002627
3585.6990,-0.002250
3587.5627,-0.002195
3589.4263,-0.002515
3591.2900,-0.002324
3593.1537,-0.002339
3595.0173,-0.002046
3596.8810,-0.002074
3598.7447,-0.002076
3600.6084,-0.002210
3602.4720,-0.002074
3604.3357,-0.001344
3606.1994,-0.001653
3608.0630,-0.002247
3609.9267,-0.001841
3611.7904,-0.001510
3613.6540,-0.002168
3615.5177,-0.002114
3617.3814,-0.002117
3619.2450,-0.002572
3621.1087,-0.001422
3622.9724,-0.000111
3624.8360,-0.001171
3626.6997,-0.002786
3628.5634,-0.001737
3630.4271,-0.000914
3632.2907,-0.001004
3634.1544,-0.002388
3636.0181,-0.002682
3637.8817,-0.002353
3639.7454,-0.002609
3641.6091,-0.002314
3643.4727,-0.002394
3645.3364,-0.002991
3647.2001,-0.002938
3649.0637,-0.002309
3650.9274,-0.001384
3652.7911,-0.002072
3654.6547,-0.002760
3656.5184,-0.003008
3658.3821,-0.001668
3660.2458,-0.001495
3662.1094,-0.002335
3663.9731,-0.002750
3665.8368,-0.003212
3667.7004,-0.003196
3669.5641,-0.002283
3671.4278,-0.002020
3673.2914,-0.002238
3675.1551,-0.003103
3677.0188,-0.003469
3678.8824,-0.001067
3680.7461,-0.001668
3682.6098,-0.002882
3684.4735,-0.002714
3686.3371,-0.001752
3688.2008,-0.001993
3690.0645,-0.002933
3691.9281,-0.001752
3693.7918,-0.000752
3695.6555,-0.001229
3697.5191,-0.001915
3699.3828,-0.001704
3701.2465,-0.001916
3703.1101,-0.002569
3704.9738,-0.003201
3706.8375,-0.003401
3708.7011,-0.003452
3710.5648,-0.003633
3712.4285,-0.003451
3714.2922,-0.001979
3716.1558,-0.001780
3718.0195,-0.002602
3719.8832,-0.002929
3721.7468,-0.002535
3723.6105,-0.003028
3725.4742,-0.001912
3727.3378,-0.001349
3729.2015,-0.001703
3731.0652,-0.002610
3732.9288,-0.003558
3734.7925,-0.002816
3736.6562,-0.002059
3738.5199,-0.001930
3740.3835,-0.002911
3742.2472,-0.003587
3744.1109,-0.002338
3745.9745,-0.001707
3747.8382,-0.001147
3749.7019,-0.003571
3751.5655,-0.002683
3753.4292,-0.001220
3755.2929,-0.001395
3757.1565,-0.002636
3759.0202,-0.002607
3760.8839,-0.001813
3762.7475,-0.001743
3764.6112,-0.002010
3766.4749,-0.002476
3768.3386,-0.002258
3770.2022,-0.002540
3772.0659,-0.002985
3773.9296,-0.003233
3775.7932,-0.003509
3777.6569,-0.003023
3779.5206,-0.002439
3781.3842,-0.001628
3783.2479,-0.001804
3785.1116,-0.002214
3786.9752,-0.002698
3788.8389,-0.002776
3790.7026,-0.002564
3792.5662,-0.002527
3794.4299,-0.001821
3796.2936,-0.001789
3798.1573,-0.002450
3800.0209,-0.001875
3801.8846,-0.001771
3803.7483,-0.000641
3805.6119,-0.001466
3807.4756,-0.003122
3809.3393,-0.002749
3811.2029,-0.002682
3813.0666,-0.002962
3814.9303,-0.002327
3816.7939,-0.002691
3818.6576,-0.002039
3820.5213,-0.002018
3822.3850,-0.002018
3824.2486,-0.000877
3826.1123,-0.001785
3827.9760,-0.002853
3829.8396,-0.002804
3831.7033,-0.002361
3833.5670,-0.002153
3835.4306,-0.003047
3837.2943,-0.003271
3839.1580,-0.002954
3841.0216,-0.001890
3842.8853,-0.001433
3844.7490,-0.001763
3846.6126,-0.002032
3848.4763,-0.002767
3850.3400,-0.003524
3852.2037,-0.002896
3854.0673,-0.001428
3855.9310,0.000587
3857.7947,-0.000522
3859.6583,-0.002759
3861.5220,-0.002978
3863.3857,-0.001880
3865.2493,-0.001631
3867.1130,-0.002846
3868.9767,-0.003272
3870.8403,-0.003283
3872.7040,-0.001549
3874.5677,-0.002651
3876.4314,-0.002413
3878.2950,-0.002249
3880.1587,-0.002564
3882.0224,-0.002219
3883.8860,-0.001876
3885.7497,-0.002495
3887.6134,-0.002749
3889.4770,-0.002452
3891.3407,-0.002510
3893.2044,-0.001022
3895.0680,-0.000667
3896.9317,-0.002136
3898.7954,-0.003457
3900.6590,-0.003380
3902.5227,-0.002708
3904.3864,-0.002670
3906.2501,-0.001831
3908.1137,-0.001838
3909.9774,-0.002839
3911.8411,-0.002929
3913.7047,-0.002996
3915.5684,-0.002798
3917.4321,-0.002590
3919.2957,-0.001767
3921.1594,-0.001625
3923.0231,-0.002287
3924.8867,-0.002702
3926.7504,-0.002116
3928.6141,-0.002331
3930.4777,-0.002481
3932.3414,-0.001646
3934.2051,-0.001646
3936.0688,-0.002184
3937.9324,-0.002573
3939.7961,-0.003000
3941.6598,-0.003174
3943.5234,-0.002444
3945.3871,-0.001554
3947.2508,-0.001911
3949.1144,-0.002566
3950.9781,-0.002519
3952.8418,-0.002644
3954.7054,-0.002390
3956.5691,-0.001509
3958.4328,-0.001765
3960.2965,-0.003818
3962.1601,-0.004300
3964.0238,-0.003241
3965.8875,-0.003285
3967.7511,-0.003656
3969.6148,-0.003261
3971.4785,-0.002607
3973.3421,-0.002895
3975.2058,-0.002022
3977.0695,-0.001200
3978.9331,-0.002020
3980.7968,-0.002285
3982.6605,-0.002039
3984.5241,-0.002579
3986.3878,-0.002892
3988.2515,-0.002961
3990.1152,-0.002642
3991.9788,-0.002591
3993.8425,-0.002676
3995.7062,-0.002309
3997.5698,-0.002384
3999.4335,-0.002876
4001.2972,-0.002246
4003.1608,-0.001281
4005.0245,-0.001770
4006.8882,-0.003066
4008.7518,-0.003223
4010.6155,-0.001968
4012.4792,-0.001548
4014.3429,-0.002209
4016.2065,-0.002840
4018.0702,-0.002737
4019.9339,-0.002622
4021.7975,-0.002971
4023.6612,-0.003674
4025.5249,-0.004112
4027.3885,-0.002922
4029.2522,-0.001986
4031.1159,-0.002250
4032.9795,-0.002442
4034.8432,-0.002228
4036.7069,-0.002063
4038.5705,-0.002563
4040.4342,-0.002600
4042.2979,-0.002426
4044.1616,-0.002737
4046.0252,-0.002606
4047.8889,-0.002524
4049.7526,-0.002658
4051.6162,-0.002324
4053.4799,-0.002571
4055.3436,-0.002995
4057.2072,-0.003160
4059.0709,-0.003238
4060.9346,-0.002872
4062.7982,-0.002389
4064.6619,-0.002469
4066.5256,-0.002807
4068.3892,-0.002782
4070.2529,-0.002717
4072.1166,-0.002650
4073.9803,-0.002785
4075.8439,-0.003472
4077.7076,-0.003234
4079.5713,-0.002622
4081.4349,-0.002341
4083.2986,-0.002786
4085.1623,-0.002603
4087.0259,-0.002686
4088.8896,-0.002652
4090.7533,-0.002219
4092.6169,-0.001807
4094.4806,-0.001917
4096.3443,-0.001839
4098.2080,-0.001752
4100.0716,-0.002244
4101.9353,-0.002173
4103.7990,-0.002039
4105.6626,-0.002683
4107.5263,-0.002658
4109.3900,-0.002534
4111.2536,-0.002254
4113.1173,-0.002539
4114.9810,-0.002747
4116.8446,-0.002799
4118.7083,-0.002432
4120.5720,-0.001722
4122.4356,-0.001752
4124.2993,-0.002173
4126.1630,-0.002560
4128.0267,-0.002470
4129.8903,-0.002402
4131.7540,-0.002632
4133.6177,-0.002708
4135.4813,-0.003541
4137.3450,-0.003306
4139.2087,-0.002601
4141.0723,-0.003370
4142.9360,-0.003677
4144.7997,-0.003687
4146.6633,-0.003735
4148.5270,-0.002883
4150.3907,-0.002023
4152.2544,-0.002186
4154.1180,-0.002482
4155.9817,-0.002926
4157.8454,-0.003419
4159.7090,-0.003539
4161.5727,-0.002688
4163.4364,-0.002167
4165.3000,-0.002727
4167.1637,-0.002414
4169.0274,-0.001695
4170.8910,-0.002204
4172.7547,-0.002771
4174.6184,-0.002721
4176.4820,-0.003043
4178.3457,-0.002750
4180.2094,-0.001952
4182.0731,-0.002824
4183.9367,-0.003707
4185.8004,-0.002889
4187.6641,-0.002390
4189.5277,-0.002693
4191.3914,-0.002635
4193.2551,-0.002724
4195.1187,-0.002479
4196.9824,-0.002677
4198.8461,-0.002560
4200.7097,-0.002200
4202.5734,-0.002568
4204.4371,-0.002466
4206.3007,-0.002055
4208.1644,-0.001160
4210.0281,-0.001121
4211.8918,-0.001761
4213.7554,-0.002506
4215.6191,-0.003369
4217.4828,-0.002340
4219.3464,-0.001409
4221.2101,-0.001972
4223.0738,-0.002894
4224.9374,-0.003089
4226.8011,-0.003119
4228.6648,-0.002957
4230.5284,-0.002470
4232.3921,-0.002271
4234.2558,-0.002281
4236.1195,-0.001651
4237.9831,-0.002042
4239.8468,-0.003579
4241.7105,-0.003770
4243.5741,-0.003382
4245.4378,-0.003182
4247.3015,-0.002486
4249.1651,-0.002298
4251.0288,-0.001769
4252.8925,-0.001957
4254.7561,-0.003707
4256.6198,-0.003632
4258.4835,-0.002854
4260.3471,-0.001948
4262.2108,-0.001219
4264.0745,-0.002236
4265.9382,-0.002794
4267.8018,-0.002046
4269.6655,-0.001963
4271.5292,-0.001766
4273.3928,-0.002196
4275.2565,-0.002337
4277.1202,-0.001879
4278.9838,-0.001869
4280.8475,-0.002249
4282.7112,-0.002406
4284.5748,-0.003100
4286.4385,-0.003225
4288.3022,-0.002307
4290.1659,-0.002104
4292.0295,-0.002370
4293.8932,-0.002674
4295.7569,-0.002966
4297.6205,-0.002270
4299.4842,-0.001839
4301.3479,-0.002580
4303.2115,-0.003108
4305.0752,-0.003114
4306.9389,-0.003663
4308.8025,-0.003199
4310.6662,-0.002641
4312.5299,-0.003348
4314.3935,-0.003220
4316.2572,-0.002869
4318.1209,-0.003175
4319.9846,-0.003298
4321.8482,-0.002635
4323.7119,-0.001766
4325.5756,-0.002191
4327.4392,-0.002748
4329.3029,-0.002708
4331.1666,-0.002635
4333.0302,-0.003225
4334.8939,-0.003568
4336.7576,-0.003157
4338.6212,-0.003306
4340.4849,-0.003345
4342.3486,-0.002018
4344.2122,-0.001342
4346.0759,-0.002061
4347.9396,-0.002784
4349.8033,-0.002923
4351.6669,-0.002420
4353.5306,-0.001805
4355.3943,-0.001666
4357.2579,-0.002322
4359.1216,-0.002918
4360.9853,-0.002487
4362.8489,-0.002406
4364.7126,-0.002775
4366.5763,-0.003080
4368.4399,-0.003761
4370.3036,-0.003429
4372.1673,-0.001977
4374.0310,-0.001905
4375.8946,-0.001810
4377.7583,-0.001426
4379.6220,-0.002437
4381.4856,-0.002270
4383.3493,-0.001794
4385.2130,-0.002706
4387.0766,-0.003278
4388.9403,-0.002266
4390.8040,-0.001421
4392.6676,-0.002235
4394.5313,-0.002845
4396.3950,-0.002620
4398.2586,-0.002994
4400.1223,-0.003456
4401.9860,-0.003526
4403.8497,-0.004029
4405.7133,-0.002919
4407.5770,-0.001396
4409.4407,-0.002207
4411.3043,-0.002633
4413.1680,-0.002313
4415.0317,-0.002185
4416.8953,-0.002114
4418.7590,-0.001655
4420.6227,-0.002069
4422.4863,-0.003357
4424.3500,-0.003372
4426.2137,-0.003598
4428.0774,-0.004559
4429.9410,-0.004046
4431.8047,-0.002065
4433.6684,-0.001557
4435.5320,-0.001686
4437.3957,-0.001928
4439.2594,-0.003155
4441.1230,-0.003232
4442.9867,-0.002081
4444.8504,-0.002132
4446.7140,-0.002383
4448.5777,-0.001967
4450.4414,-0.001392
4452.3050,-0.001791
4454.1687,-0.002543
4456.0324,-0.002732
4457.8961,-0.002401
4459.7597,-0.002144
4461.6234,-0.002422
4463.4871,-0.002432
4465.3507,-0.001444
4467.2144,-0.001777
4469.0781,-0.003281
4470.9417,-0.003703
4472.8054,-0.003187
4474.6691,-0.003407
4476.5327,-0.003157
4478.3964,-0.002864
4480.2601,-0.002381
4482.1237,-0.001612
4483.9874,-0.002338
4485.8511,-0.002808
4487.7148,-0.002366
4489.5784,-0.002307
4491.4421,-0.002258
4493.3058,-0.002127
4495.1694,-0.001957
4497.0331,-0.001927
4498.8968,-0.002426
4500.7604,-0.003350
