Wavenumber,Intensity
600.1014,-0.000885
601.9651,0.011386
603.8287,0.011030
605.6924,0.005557
607.5561,0.000033
609.4197,0.001476
611.2834,0.005896
613.1471,0.002415
615.0107,0.000860
616.8744,0.000420
618.7381,-0.005388
620.6017,-0.002755
622.4654,-0.001364
624.3291,-0.000570
626.1928,0.001390
628.0564,0.003543
629.9201,0.001797
631.7838,0.000524
633.6474,0.000671
635.5111,0.000740
637.3748,0.001664
639.2384,0.002189
641.1021,0.001834
642.9658,0.000404
644.8294,0.001483
646.6931,0.003513
648.5568,0.004853
650.4205,0.003559
652.2841,0.002438
654.1478,0.002374
656.0115,0.001257
657.8751,0.000869
659.7388,0.001510
661.6025,0.001652
663.4661,0.001804
665.3298,0.002964
667.1935,0.005073
669.0571,0.005079
670.9208,0.003437
672.7845,0.002516
674.6481,0.001905
676.5118,0.001779
678.3755,0.001711
680.2392,0.002569
682.1028,0.003226
683.9665,0.003255
685.8302,0.003153
687.6938,0.003476
689.5575,0.003215
691.4212,0.002399
693.2848,0.003111
695.1485,0.003982
697.0122,0.002979
698.8758,0.002089
700.7395,0.002178
702.6032,0.002464
704.4669,0.002021
706.3305,0.001483
708.1942,0.002003
710.0579,0.001830
711.9215,0.001012
713.7852,0.001639
715.6489,0.002712
717.5125,0.002433
719.3762,0.001786
721.2399,0.002274
723.1035,0.002805
724.9672,0.002315
726.8309,0.001747
728.6945,0.001669
730.5582,0.001664
732.4219,0.001822
734.2856,0.001767
736.1492,0.001725
738.0129,0.002031
739.8766,0.002464
741.7402,0.002592
743.6039,0.002509
745.4676,0.002546
747.3312,0.002669
749.1949,0.002859
751.0586,0.002754
752.9222,0.002533
754.7859,0.002567
756.6496,0.002752
758.5132,0.002932
760.3769,0.002918
762.2406,0.003196
764.1043,0.003550
765.9679,0.003673
767.8316,0.003625
769.6953,0.003653
771.5589,0.003766
773.4226,0.003959
775.2863,0.004322
777.1499,0.004321
779.0136,0.004261
780.8773,0.004341
782.7409,0.004095
784.6046,0.003861
786.4683,0.003970
788.3320,0.004083
790.1956,0.004011
792.0593,0.003960
793.9230,0.004184
795.7866,0.004243
797.6503,0.004174
799.5140,0.004282
801.3776,0.004181
803.2413,0.003670
805.1050,0.003111
806.9686,0.002778
808.8323,0.002484
810.6960,0.001962
812.5596,0.001505
814.4233,0.001618
816.2870,0.001582
818.1507,0.001337
820.0143,0.001167
821.8780,0.001055
823.7417,0.001299
825.6053,0.001517
827.4690,0.001335
829.3327,0.001425
831.1963,0.001608
833.0600,0.001693
834.9237,0.001863
836.7873,0.001827
838.6510,0.001713
840.5147,0.001623
842.3784,0.001313
844.2420,0.001313
846.1057,0.001521
847.9694,0.001622
849.8330,0.001751
851.6967,0.001795
853.5604,0.001877
855.4240,0.001777
857.2877,0.001762
859.1514,0.001774
861.0150,0.001739
862.8787,0.001961
864.7424,0.002016
866.6060,0.001900
868.4697,0.001798
870.3334,0.001682
872.1971,0.001753
874.0607,0.001907
875.9244,0.002101
877.7881,0.002159
879.6517,0.002110
881.5154,0.002148
883.3791,0.002370
885.2427,0.002335
887.1064,0.002171
888.9701,0.002078
890.8337,0.002041
892.6974,0.002320
894.5611,0.002645
896.4247,0.002699
898.2884,0.002664
900.1521,0.002584
902.0158,0.002646
903.8794,0.002742
905.7431,0.002841
907.6068,0.002889
909.4704,0.002818
911.3341,0.002795
913.1978,0.002900
915.0614,0.003079
916.9251,0.003292
918.7888,0.003353
920.6524,0.003354
922.5161,0.003337
924.3798,0.003322
926.2435,0.003419
928.1071,0.003585
929.9708,0.003677
931.8345,0.003770
933.6981,0.003945
935.5618,0.004214
937.4255,0.004439
939.2891,0.004577
941.1528,0.004815
943.0165,0.005104
944.8801,0.005226
946.7438,0.005257
948.6075,0.005248
950.4711,0.005156
952.3348,0.004930
954.1985,0.004600
956.0622,0.004350
957.9258,0.004158
959.7895,0.004069
961.6532,0.004073
963.5168,0.004021
965.3805,0.003952
967.2442,0.004002
969.1078,0.004166
970.9715,0.004318
972.8352,0.004367
974.6988,0.004454
976.5625,0.004616
978.4262,0.004796
980.2899,0.004894
982.1535,0.004997
984.0172,0.005076
985.8809,0.005119
987.7445,0.005250
989.6082,0.005445
991.4719,0.005621
993.3355,0.005767
995.1992,0.005907
997.0629,0.006022
998.9265,0.006094
1000.7902,0.006136
1002.6539,0.006346
1004.5175,0.006625
1006.3812,0.006745
1008.2449,0.006780
1010.1086,0.006944
1011.9722,0.007052
1013.8359,0.007174
1015.6996,0.007389
1017.5632,0.007572
1019.4269,0.007685
1021.2906,0.007743
1023.1542,0.007866
1025.0179,0.008084
1026.8816,0.008302
1028.7452,0.008489
1030.6089,0.008678
1032.4726,0.008837
1034.3362,0.009002
1036.1999,0.009175
1038.0636,0.009381
1039.9273,0.009583
1041.7909,0.009662
1043.6546,0.009749
1045.5183,0.009945
1047.3819,0.010013
1049.2456,0.009935
1051.1093,0.009769
1052.9729,0.009644
1054.8366,0.009531
1056.7003,0.009386
1058.5639,0.009203
1060.4276,0.009216
1062.2913,0.009417
1064.1550,0.009736
1066.0186,0.010002
1067.8823,0.010031
1069.7460,0.009913
1071.6096,0.009792
1073.4733,0.009596
1075.3370,0.009358
1077.2006,0.009260
1079.0643,0.009286
1080.9280,0.009196
1082.7916,0.009042
1084.6553,0.008926
1086.5190,0.008718
1088.3826,0.008442
1090.2463,0.008231
1092.1100,0.008117
1093.9737,0.007950
1095.8373,0.007760
1097.7010,0.007517
1099.5647,0.007280
1101.4283,0.007083
1103.2920,0.006899
1105.1557,0.006774
1107.0193,0.006590
1108.8830,0.006357
1110.7467,0.006147
1112.6103,0.006104
1114.4740,0.006217
1116.3377,0.006405
1118.2014,0.006566
1120.0650,0.006567
1121.9287,0.006437
1123.7924,0.006136
1125.6560,0.005749
1127.5197,0.005468
1129.3834,0.005319
1131.2470,0.005088
1133.1107,0.004929
1134.9744,0.004858
1136.8380,0.004703
1138.7017,0.004539
1140.5654,0.004391
1142.4290,0.004232
1144.2927,0.004060
1146.1564,0.003960
1148.0201,0.003838
1149.8837,0.003631
1151.7474,0.003446
1153.6111,0.003291
1155.4747,0.003170
1157.3384,0.003167
1159.2021,0.003281
1161.0657,0.003403
1162.9294,0.003361
1164.7931,0.003268
1166.6567,0.003305
1168.5204,0.003209
1170.3841,0.002921
1172.2477,0.002752
1174.1114,0.002633
1175.9751,0.002387
1177.8388,0.002178
1179.7024,0.002102
1181.5661,0.002032
1183.4298,0.001984
1185.2934,0.001918
1187.1571,0.001824
1189.0208,0.001741
1190.8844,0.001644
1192.7481,0.001662
1194.6118,0.001726
1196.4754,0.001640
1198.3391,0.001550
1200.2028,0.001503
1202.0665,0.001363
1203.9301,0.001230
1205.7938,0.001196
1207.6575,0.001108
1209.5211,0.001017
1211.3848,0.000838
1213.2485,0.000690
1215.1121,0.000670
1216.9758,0.000599
1218.8395,0.000421
1220.7031,0.000364
1222.5668,0.000369
1224.4305,0.000278
1226.2941,0.000256
1228.1578,0.000255
1230.0215,0.000164
1231.8852,0.000123
1233.7488,0.000082
1235.6125,0.000069
1237.4762,0.000117
1239.3398,0.000013
1241.2035,-0.000079
1243.0672,-0.000118
1244.9308,-0.000149
1246.7945,-0.000098
1248.6582,-0.000128
1250.5218,-0.000166
1252.3855,-0.000178
1254.2492,-0.000285
1256.1129,-0.000304
1257.9765,-0.000245
1259.8402,-0.000217
1261.7039,-0.000264
1263.5675,-0.000281
1265.4312,-0.000221
1267.2949,-0.000233
1269.1585,-0.000226
1271.0222,-0.000217
1272.8859,-0.000242
1274.7495,-0.000271
1276.6132,-0.000328
1278.4769,-0.000329
1280.3405,-0.000388
1282.2042,-0.000483
1284.0679,-0.000417
1285.9316,-0.000356
1287.7952,-0.000389
1289.6589,-0.000468
1291.5226,-0.000468
1293.3862,-0.000408
1295.2499,-0.000375
1297.1136,-0.000385
1298.9772,-0.000472
1300.8409,-0.000554
1302.7046,-0.000533
1304.5682,-0.000452
1306.4319,-0.000452
1308.2956,-0.000526
1310.1592,-0.000502
1312.0229,-0.000407
1313.8866,-0.000418
1315.7503,-0.000421
1317.6139,-0.000366
1319.4776,-0.000309
1321.3413,-0.000412
1323.2049,-0.000500
1325.0686,-0.000534
1326.9323,-0.000595
1328.7959,-0.000608
1330.6596,-0.000614
1332.5233,-0.000621
1334.3869,-0.000568
1336.2506,-0.000524
1338.1143,-0.000480
1339.9780,-0.000431
1341.8416,-0.000489
1343.7053,-0.000543
1345.5690,-0.000547
1347.4326,-0.000604
1349.2963,-0.000664
1351.1600,-0.000653
1353.0236,-0.000598
1354.8873,-0.000609
1356.7510,-0.000719
1358.6146,-0.000757
1360.4783,-0.000734
1362.3420,-0.000642
1364.2056,-0.000587
1366.0693,-0.000606
1367.9330,-0.000553
1369.7967,-0.000572
1371.6603,-0.000685
1373.5240,-0.000704
1375.3877,-0.000665
1377.2513,-0.000640
1379.1150,-0.000598
1380.9787,-0.000616
1382.8423,-0.000557
1384.7060,-0.000674
1386.5697,-0.000736
1388.4333,-0.000647
1390.2970,-0.000624
1392.1607,-0.000725
1394.0244,-0.000790
1395.8880,-0.000692
1397.7517,-0.000632
1399.6154,-0.000621
1401.4790,-0.000707
1403.3427,-0.000783
1405.2064,-0.000708
1407.0700,-0.000653
1408.9337,-0.000691
1410.7974,-0.000671
1412.6610,-0.000730
1414.5247,-0.000718
1416.3884,-0.000746
1418.2520,-0.000775
1420.1157,-0.000626
1421.9794,-0.000729
1423.8431,-0.000806
1425.7067,-0.000838
1427.5704,-0.000867
1429.4341,-0.000703
1431.2977,-0.000650
1433.1614,-0.000796
1435.0251,-0.000863
1436.8887,-0.000559
1438.7524,-0.000557
1440.6161,-0.000754
1442.4797,-0.000810
1444.3434,-0.000800
1446.2071,-0.000874
1448.0707,-0.000858
1449.9344,-0.000785
1451.7981,-0.000734
1453.6618,-0.000876
1455.5254,-0.001111
1457.3891,-0.000655
1459.2528,-0.000397
1461.1164,-0.000640
1462.9801,-0.000870
1464.8438,-0.000728
1466.7074,-0.000724
1468.5711,-0.000869
1470.4348,-0.000901
1472.2984,-0.000717
1474.1621,-0.000775
1476.0258,-0.000755
1477.8895,-0.000740
1479.7531,-0.000793
1481.6168,-0.000746
1483.4805,-0.000816
1485.3441,-0.000849
1487.2078,-0.000750
1489.0715,-0.000776
1490.9351,-0.000709
1492.7988,-0.000782
1494.6625,-0.000852
1496.5261,-0.000688
1498.3898,-0.000595
1500.2535,-0.000606
1502.1171,-0.000754
1503.9808,-0.001154
1505.8445,-0.001201
1507.7082,-0.000481
1509.5718,-0.000435
1511.4355,-0.000605
1513.2992,-0.000748
1515.1628,-0.000798
1517.0265,-0.000688
1518.8902,-0.000938
1520.7538,-0.000811
1522.6175,-0.000615
1524.4812,-0.000863
1526.3448,-0.000809
1528.2085,-0.000669
1530.0722,-0.000813
1531.9359,-0.001053
1533.7995,-0.000857
1535.6632,-0.000781
1537.5269,-0.000910
1539.3905,-0.000975
1541.2542,-0.000873
1543.1179,-0.000775
1544.9815,-0.000734
1546.8452,-0.000833
1548.7089,-0.000796
1550.5725,-0.000651
1552.4362,-0.000761
1554.2999,-0.000711
1556.1635,-0.001084
1558.0272,-0.001486
1559.8909,-0.000658
1561.7546,-0.000400
1563.6182,-0.000749
1565.4819,-0.001090
1567.3456,-0.001328
1569.2092,-0.001070
1571.0729,-0.000819
1572.9366,-0.001032
1574.8002,-0.001137
1576.6639,-0.000847
1578.5276,-0.000784
1580.3912,-0.000905
1582.2549,-0.000938
1584.1186,-0.000923
1585.9822,-0.000889
1587.8459,-0.000873
1589.7096,-0.000929
1591.5733,-0.000988
1593.4369,-0.001031
1595.3006,-0.001094
1597.1643,-0.001020
1599.0279,-0.000987
1600.8916,-0.000954
1602.7553,-0.000946
1604.6189,-0.001004
1606.4826,-0.000989
1608.3463,-0.000939
1610.2099,-0.000967
1612.0736,-0.000792
1613.9373,-0.000909
1615.8010,-0.001201
1617.6646,-0.000866
1619.5283,-0.000687
1621.3920,-0.000899
1623.2556,-0.000923
1625.1193,-0.000911
1626.9830,-0.000942
1628.8466,-0.000908
1630.7103,-0.000868
1632.5740,-0.001069
1634.4376,-0.001280
1636.3013,-0.000878
1638.1650,-0.000807
1640.0286,-0.000913
1641.8923,-0.000934
1643.7560,-0.001122
1645.6197,-0.001256
1647.4833,-0.000850
1649.3470,-0.000751
1651.2107,-0.001181
1653.0743,-0.001112
1654.9380,-0.000671
1656.8017,-0.000962
1658.6653,-0.001160
1660.5290,-0.001112
1662.3927,-0.000931
1664.2563,-0.000806
1666.1200,-0.000870
1667.9837,-0.001165
1669.8474,-0.001146
1671.7110,-0.001017
1673.5747,-0.001198
1675.4384,-0.001101
1677.3020,-0.001091
1679.1657,-0.001230
1681.0294,-0.001312
1682.8930,-0.001455
1684.7567,-0.001057
1686.6204,-0.000876
1688.4840,-0.000951
1690.3477,-0.001056
1692.2114,-0.001081
1694.0750,-0.001155
1695.9387,-0.000983
1697.8024,-0.001270
1699.6661,-0.001351
1701.5297,-0.001022
1703.3934,-0.001196
1705.2571,-0.001244
1707.1207,-0.001090
1708.9844,-0.001170
1710.8481,-0.001309
1712.7117,-0.001245
1714.5754,-0.001037
1716.4391,-0.001082
1718.3027,-0.000955
1720.1664,-0.000945
1722.0301,-0.001223
1723.8937,-0.001338
1725.7574,-0.001177
1727.6211,-0.001155
1729.4848,-0.001191
1731.3484,-0.001279
1733.2121,-0.001146
1735.0758,-0.000713
1736.9394,-0.001049
1738.8031,-0.001355
1740.6668,-0.001363
1742.5304,-0.001148
1744.3941,-0.001095
1746.2578,-0.001274
1748.1214,-0.001507
1749.9851,-0.001589
1751.8488,-0.001202
1753.7125,-0.001201
1755.5761,-0.001453
1757.4398,-0.001351
1759.3035,-0.001284
1761.1671,-0.001266
1763.0308,-0.001202
1764.8945,-0.001234
1766.7581,-0.001316
1768.6218,-0.001254
1770.4855,-0.001329
1772.3491,-0.001142
1774.2128,-0.000900
1776.0765,-0.001050
1777.9401,-0.001279
1779.8038,-0.001346
1781.6675,-0.001412
1783.5312,-0.001398
1785.3948,-0.001223
1787.2585,-0.001266
1789.1222,-0.001469
1790.9858,-0.001536
1792.8495,-0.001210
1794.7132,-0.001031
1796.5768,-0.001260
1798.4405,-0.001375
1800.3042,-0.001300
1802.1678,-0.001294
1804.0315,-0.001172
1805.8952,-0.001224
1807.7589,-0.001431
1809.6225,-0.001367
1811.4862,-0.001227
1813.3499,-0.001342
1815.2135,-0.001455
1817.0772,-0.001465
1818.9409,-0.001502
1820.8045,-0.001462
1822.6682,-0.001457
1824.5319,-0.001434
1826.3955,-0.001390
1828.2592,-0.001519
1830.1229,-0.001607
1831.9865,-0.001593
1833.8502,-0.001506
1835.7139,-0.001525
1837.5776,-0.001546
1839.4412,-0.001461
1841.3049,-0.001477
1843.1686,-0.001459
1845.0322,-0.001120
1846.8959,-0.001083
1848.7596,-0.001296
1850.6232,-0.001669
1852.4869,-0.001768
1854.3506,-0.001574
1856.2142,-0.001515
1858.0779,-0.001525
1859.9416,-0.001364
1861.8052,-0.001396
1863.6689,-0.001625
1865.5326,-0.001800
1867.3963,-0.001810
1869.2599,-0.001593
1871.1236,-0.001241
1872.9873,-0.001226
1874.8509,-0.001506
1876.7146,-0.001548
1878.5783,-0.001399
1880.4419,-0.001504
1882.3056,-0.001732
1884.1693,-0.001783
1886.0329,-0.001622
1887.8966,-0.001537
1889.7603,-0.001509
1891.6240,-0.001442
1893.4876,-0.001380
1895.3513,-0.001548
1897.2150,-0.001702
1899.0786,-0.001619
1900.9423,-0.001651
1902.8060,-0.001785
1904.6696,-0.001752
1906.5333,-0.001499
1908.3970,-0.001470
1910.2606,-0.001754
1912.1243,-0.001539
1913.9880,-0.001418
1915.8516,-0.001788
1917.7153,-0.002092
1919.5790,-0.002032
1921.4427,-0.001720
1923.3063,-0.001452
1925.1700,-0.001398
1927.0337,-0.001478
1928.8973,-0.001636
1930.7610,-0.001906
1932.6247,-0.001675
1934.4883,-0.001278
1936.3520,-0.001517
1938.2157,-0.001728
1940.0793,-0.001889
1941.9430,-0.002209
1943.8067,-0.002048
1945.6704,-0.001600
1947.5340,-0.001337
1949.3977,-0.000808
1951.2614,-0.000895
1953.1250,-0.001773
1954.9887,-0.001805
1956.8524,-0.001469
1958.7160,-0.001719
1960.5797,-0.002185
1962.4434,-0.002269
1964.3070,-0.001688
1966.1707,-0.001354
1968.0344,-0.001880
1969.8980,-0.001767
1971.7617,-0.001561
1973.6254,-0.001785
1975.4891,-0.001720
1977.3527,-0.001525
1979.2164,-0.001915
1981.0801,-0.002253
1982.9437,-0.001676
1984.8074,-0.001463
1986.6711,-0.001566
1988.5347,-0.001801
1990.3984,-0.002158
1992.2621,-0.001940
1994.1257,-0.001596
1995.9894,-0.001721
1997.8531,-0.001793
1999.7167,-0.001923
2001.5804,-0.002163
2003.4441,-0.002063
2005.3078,-0.001994
2007.1714,-0.001872
2009.0351,-0.001889
2010.8988,-0.002134
2012.7624,-0.002209
2014.6261,-0.002055
2016.4898,-0.002035
2018.3534,-0.001774
2020.2171,-0.001616
2022.0808,-0.001731
2023.9444,-0.001890
2025.8081,-0.002263
2027.6718,-0.001617
2029.5355,-0.000804
2031.3991,-0.001507
2033.2628,-0.002139
2035.1265,-0.001666
2036.9901,-0.001632
2038.8538,-0.002227
2040.7175,-0.002469
2042.5811,-0.001698
2044.4448,-0.001403
2046.3085,-0.002032
2048.1721,-0.001903
2050.0358,-0.001399
2051.8995,-0.001707
2053.7631,-0.001964
2055.6268,-0.001878
2057.4905,-0.002112
2059.3542,-0.002129
2061.2178,-0.001806
2063.0815,-0.001946
2064.9452,-0.001987
2066.8088,-0.001794
2068.6725,-0.001859
2070.5362,-0.001983
2072.3998,-0.001836
2074.2635,-0.001714
2076.1272,-0.001624
2077.9908,-0.001532
2079.8545,-0.001518
2081.7182,-0.001424
2083.5819,-0.001514
2085.4455,-0.002044
2087.3092,-0.002491
2089.1729,-0.002439
2091.0365,-0.002102
2092.9002,-0.001750
2094.7639,-0.001815
2096.6275,-0.001988
2098.4912,-0.001953
2100.3549,-0.001946
2102.2185,-0.001438
2104.0822,-0.001455
2105.9459,-0.001902
2107.8095,-0.001942
2109.6732,-0.002152
2111.5369,-0.002153
2113.4006,-0.002031
2115.2642,-0.002152
2117.1279,-0.002151
2118.9916,-0.001925
2120.8552,-0.001848
2122.7189,-0.001961
2124.5826,-0.002296
2126.4462,-0.002608
2128.3099,-0.002420
2130.1736,-0.002296
2132.0372,-0.002128
2133.9009,-0.001791
2135.7646,-0.001884
2137.6282,-0.002114
2139.4919,-0.002107
2141.3556,-0.002251
2143.2193,-0.002243
2145.0829,-0.002390
2146.9466,-0.002483
2148.8103,-0.002413
2150.6739,-0.002575
2152.5376,-0.002078
2154.4013,-0.001983
2156.2649,-0.002650
2158.1286,-0.002683
2159.9923,-0.002684
2161.8559,-0.002680
2163.7196,-0.002251
2165.5833,-0.002324
2167.4470,-0.001819
2169.3106,-0.001529
2171.1743,-0.002531
2173.0380,-0.002443
2174.9016,-0.001516
2176.7653,-0.001431
2178.6290,-0.001800
2180.4926,-0.002170
2182.3563,-0.002821
2184.2200,-0.002883
2186.0836,-0.002056
2187.9473,-0.001460
2189.8110,-0.001260
2191.6746,-0.001608
2193.5383,-0.002318
2195.4020,-0.002574
2197.2657,-0.002601
2199.1293,-0.002297
2200.9930,-0.002262
2202.8567,-0.002524
2204.7203,-0.002225
2206.5840,-0.001720
2208.4477,-0.001612
2210.3113,-0.002049
2212.1750,-0.002425
2214.0387,-0.002519
2215.9023,-0.002053
2217.7660,-0.001843
2219.6297,-0.002489
2221.4934,-0.002656
2223.3570,-0.002222
2225.2207,-0.001964
2227.0844,-0.001453
2228.9480,-0.001274
2230.8117,-0.001797
2232.6754,-0.002176
2234.5390,-0.002154
2236.4027,-0.002135
2238.2664,-0.002136
2240.1300,-0.001937
2241.9937,-0.002168
2243.8574,-0.002498
2245.7210,-0.002235
2247.5847,-0.002190
2249.4484,-0.002841
2251.3121,-0.002647
2253.1757,-0.001758
2255.0394,-0.001716
2256.9031,-0.002268
2258.7667,-0.002629
2260.6304,-0.002314
2262.4941,-0.001771
2264.3577,-0.001926
2266.2214,-0.002232
2268.0851,-0.001950
2269.9487,-0.001874
2271.8124,-0.002278
2273.6761,-0.002219
2275.5397,-0.001874
2277.4034,-0.001861
2279.2671,-0.001838
2281.1308,-0.001941
2282.9944,-0.002282
2284.8581,-0.002316
2286.7218,-0.001901
2288.5854,-0.001730
2290.4491,-0.002109
2292.3128,-0.002178
2294.1764,-0.001920
2296.0401,-0.001650
2297.9038,-0.001266
2299.7674,-0.001294
2301.6311,-0.001442
2303.4948,-0.001085
2305.3585,-0.000997
2307.2221,-0.000996
2309.0858,-0.000500
2310.9495,-0.000264
2312.8131,-0.000184
2314.6768,0.000276
2316.5405,0.000681
2318.4041,0.000784
2320.2678,0.000937
2322.1315,0.001153
2323.9951,0.001280
2325.8588,0.001589
2327.7225,0.001783
2329.5861,0.001688
2331.4498,0.001847
2333.3135,0.002082
2335.1772,0.002241
2337.0408,0.002188
2338.9045,0.002152
2340.7682,0.002486
2342.6318,0.002679
2344.4955,0.002593
2346.3592,0.002180
2348.2228,0.001242
2350.0865,0.000904
2351.9502,0.001531
2353.8138,0.002175
2355.6775,0.002842
2357.5412,0.003884
2359.4049,0.004835
2361.2685,0.004877
2363.1322,0.004022
2364.9959,0.003522
2366.8595,0.003418
2368.7232,0.002578
2370.5869,0.001739
2372.4505,0.001206
2374.3142,0.000724
2376.1779,0.000461
2378.0415,-0.000239
2379.9052,-0.001057
2381.7689,-0.001226
2383.6325,-0.001502
2385.4962,-0.002013
2387.3599,-0.002018
2389.2236,-0.002117
2391.0872,-0.002697
2392.9509,-0.002912
2394.8146,-0.002577
2396.6782,-0.002413
2398.5419,-0.002416
2400.4056,-0.002249
2402.2692,-0.002115
2404.1329,-0.002188
2405.9966,-0.002391
2407.8602,-0.002504
2409.7239,-0.002308
2411.5876,-0.002115
2413.4512,-0.002174
2415.3149,-0.002327
2417.1786,-0.002595
2419.0423,-0.002725
2420.9059,-0.002755
2422.7696,-0.002571
2424.6333,-0.002095
2426.4969,-0.002203
2428.3606,-0.002606
2430.2243,-0.002573
2432.0879,-0.002563
2433.9516,-0.002813
2435.8153,-0.003007
2437.6789,-0.002803
2439.5426,-0.002417
2441.4063,-0.002295
2443.2700,-0.002534
2445.1336,-0.002642
2446.9973,-0.002347
2448.8610,-0.002220
2450.7246,-0.002265
2452.5883,-0.002215
2454.4520,-0.002184
2456.3156,-0.002222
2458.1793,-0.002160
2460.0430,-0.002214
2461.9066,-0.002472
2463.7703,-0.002477
2465.6340,-0.002555
2467.4976,-0.002893
2469.3613,-0.002966
2471.2250,-0.002567
2473.0887,-0.002189
2474.9523,-0.002394
2476.8160,-0.002775
2478.6797,-0.002613
2480.5433,-0.002334
2482.4070,-0.002207
2484.2707,-0.002228
2486.1343,-0.002566
2487.9980,-0.002604
2489.8617,-0.002345
2491.7253,-0.002263
2493.5890,-0.002335
2495.4527,-0.002445
2497.3164,-0.002594
2499.1800,-0.002656
2501.0437,-0.002257
2502.9074,-0.002231
2504.7710,-0.002771
2506.6347,-0.002794
2508.4984,-0.002571
2510.3620,-0.002598
2512.2257,-0.002332
2514.0894,-0.001944
2515.9530,-0.001998
2517.8167,-0.002272
2519.6804,-0.002330
2521.5440,-0.002205
2523.4077,-0.002191
2525.2714,-0.002255
2527.1351,-0.002589
2528.9987,-0.002699
2530.8624,-0.002481
2532.7261,-0.002508
2534.5897,-0.002699
2536.4534,-0.002756
2538.3171,-0.002338
2540.1807,-0.001976
2542.0444,-0.002289
2543.9081,-0.002471
2545.7717,-0.002030
2547.6354,-0.001856
2549.4991,-0.002302
2551.3627,-0.002739
2553.2264,-0.002878
2555.0901,-0.002817
2556.9538,-0.002628
2558.8174,-0.002449
2560.6811,-0.002434
2562.5448,-0.002429
2564.4084,-0.002595
2566.2721,-0.002725
2568.1358,-0.002650
2569.9994,-0.002593
2571.8631,-0.002281
2573.7268,-0.002081
2575.5904,-0.002432
2577.4541,-0.002740
2579.3178,-0.002818
2581.1815,-0.003024
2583.0451,-0.002957
2584.9088,-0.002761
2586.7725,-0.002851
2588.6361,-0.002857
2590.4998,-0.002763
2592.3635,-0.002663
2594.2271,-0.002411
2596.0908,-0.002158
2597.9545,-0.002115
2599.8181,-0.002423
2601.6818,-0.002701
2603.5455,-0.002839
2605.4091,-0.002857
2607.2728,-0.002630
2609.1365,-0.002645
2611.0002,-0.002615
2612.8638,-0.002426
2614.7275,-0.002422
2616.5912,-0.002533
2618.4548,-0.002574
2620.3185,-0.002606
2622.1822,-0.002707
2624.0458,-0.002551
2625.9095,-0.002429
2627.7732,-0.002513
2629.6368,-0.002602
2631.5005,-0.002641
2633.3642,-0.002833
2635.2279,-0.002881
2637.0915,-0.002568
2638.9552,-0.002525
2640.8189,-0.002727
2642.6825,-0.002677
2644.5462,-0.002484
2646.4099,-0.002516
2648.2735,-0.002654
2650.1372,-0.002582
2652.0009,-0.002482
2653.8645,-0.002496
2655.7282,-0.002443
2657.5919,-0.002549
2659.4555,-0.002722
2661.3192,-0.002701
2663.1829,-0.002593
2665.0466,-0.002593
2666.9102,-0.002896
2668.7739,-0.003089
2670.6376,-0.002905
2672.5012,-0.002651
2674.3649,-0.002666
2676.2286,-0.002776
2678.0922,-0.002668
2679.9559,-0.002538
2681.8196,-0.002640
2683.6832,-0.002605
2685.5469,-0.002428
2687.4106,-0.002453
2689.2742,-0.002645
2691.1379,-0.002638
2693.0016,-0.002523
2694.8653,-0.002644
2696.7289,-0.002632
2698.5926,-0.002587
2700.4563,-0.002616
2702.3199,-0.002743
2704.1836,-0.002697
2706.0473,-0.002466
2707.9109,-0.002615
2709.7746,-0.002838
2711.6383,-0.002765
2713.5019,-0.002705
2715.3656,-0.002779
2717.2293,-0.002710
2719.0930,-0.002549
2720.9566,-0.002416
2722.8203,-0.002589
2724.6840,-0.002719
2726.5476,-0.002478
2728.4113,-0.002337
2730.2750,-0.002266
2732.1386,-0.002359
2734.0023,-0.002615
2735.8660,-0.002766
2737.7296,-0.002914
2739.5933,-0.002858
2741.4570,-0.002647
2743.3206,-0.002616
2745.1843,-0.002625
2747.0480,-0.002775
2748.9117,-0.002795
2750.7753,-0.002537
2752.6390,-0.002629
2754.5027,-0.003079
2756.3663,-0.003048
2758.2300,-0.002704
2760.0937,-0.002696
2761.9573,-0.002706
2763.8210,-0.002532
2765.6847,-0.002332
2767.5483,-0.002370
2769.4120,-0.002555
2771.2757,-0.002527
2773.1394,-0.002553
2775.0030,-0.002713
2776.8667,-0.002646
2778.7304,-0.002522
2780.5940,-0.002623
2782.4577,-0.002778
2784.3214,-0.002732
2786.1850,-0.002504
2788.0487,-0.002527
2789.9124,-0.002649
2791.7760,-0.002708
2793.6397,-0.002572
2795.5034,-0.002487
2797.3670,-0.002669
2799.2307,-0.002770
2801.0944,-0.002641
2802.9581,-0.002652
2804.8217,-0.002644
2806.6854,-0.002461
2808.5491,-0.002593
2810.4127,-0.002686
2812.2764,-0.002425
2814.1401,-0.002325
2816.0037,-0.002492
2817.8674,-0.002494
2819.7311,-0.002267
2821.5947,-0.002353
2823.4584,-0.002556
2825.3221,-0.002704
2827.1857,-0.002865
2829.0494,-0.002884
2830.9131,-0.002773
2832.7768,-0.002564
2834.6404,-0.002519
2836.5041,-0.002603
2838.3678,-0.002513
2840.2314,-0.002502
2842.0951,-0.002589
2843.9588,-0.002695
2845.8224,-0.002718
2847.6861,-0.002624
2849.5498,-0.002652
2851.4134,-0.002692
2853.2771,-0.002548
2855.1408,-0.002527
2857.0045,-0.002541
2858.8681,-0.002493
2860.7318,-0.002778
2862.5955,-0.002907
2864.4591,-0.002564
2866.3228,-0.002302
2868.1865,-0.002264
2870.0501,-0.002438
2871.9138,-0.002626
2873.7775,-0.002896
2875.6411,-0.003011
2877.5048,-0.002983
2879.3685,-0.002905
2881.2321,-0.002764
2883.0958,-0.002614
2884.9595,-0.002721
2886.8232,-0.002874
2888.6868,-0.002888
2890.5505,-0.003128
2892.4142,-0.003049
2894.2778,-0.002534
2896.1415,-0.002591
2898.0052,-0.002773
2899.8688,-0.002629
2901.7325,-0.002509
2903.5962,-0.002303
2905.4598,-0.002370
2907.3235,-0.002733
2909.1872,-0.002759
2911.0509,-0.002391
2912.9145,-0.002288
2914.7782,-0.002146
2916.6419,-0.001988
2918.5055,-0.002302
2920.3692,-0.002782
2922.2329,-0.003198
2924.0965,-0.003099
2925.9602,-0.002463
2927.8239,-0.002356
2929.6875,-0.002667
2931.5512,-0.002581
2933.4149,-0.002419
2935.2785,-0.002155
2937.1422,-0.002029
2939.0059,-0.002212
2940.8696,-0.002348
2942.7332,-0.002656
2944.5969,-0.002854
2946.4606,-0.002781
2948.3242,-0.002773
2950.1879,-0.002591
2952.0516,-0.002560
2953.9152,-0.002495
2955.7789,-0.002400
2957.6426,-0.002655
2959.5062,-0.002740
2961.3699,-0.002659
2963.2336,-0.002601
2965.0972,-0.002580
2966.9609,-0.002514
2968.8246,-0.002473
2970.6883,-0.002371
2972.5519,-0.002148
2974.4156,-0.002505
2976.2793,-0.002784
2978.1429,-0.002400
2980.0066,-0.002307
2981.8703,-0.002622
2983.7339,-0.002620
2985.5976,-0.002734
2987.4613,-0.003110
2989.3249,-0.003013
2991.1886,-0.002464
2993.0523,-0.002241
2994.9160,-0.002601
2996.7796,-0.002546
2998.6433,-0.002480
3000.5070,-0.002604
3002.3706,-0.002295
3004.2343,-0.001938
3006.0980,-0.001972
3007.9616,-0.002354
3009.8253,-0.002561
3011.6890,-0.002358
3013.5526,-0.002280
3015.4163,-0.002400
3017.2800,-0.002450
3019.1436,-0.002387
3021.0073,-0.002443
3022.8710,-0.002542
3024.7347,-0.002609
3026.5983,-0.002889
3028.4620,-0.002950
3030.3257,-0.002640
3032.1893,-0.002385
3034.0530,-0.002462
3035.9167,-0.002580
3037.7803,-0.002526
3039.6440,-0.002246
3041.5077,-0.002061
3043.3713,-0.002233
3045.2350,-0.002476
3047.0987,-0.002477
3048.9624,-0.002414
3050.8260,-0.002459
3052.6897,-0.002502
3054.5534,-0.002390
3056.4170,-0.002755
3058.2807,-0.002987
3060.1444,-0.002601
3062.0080,-0.002316
3063.8717,-0.001940
3065.7354,-0.002257
3067.5990,-0.003047
3069.4627,-0.002999
3071.3264,-0.002409
3073.1900,-0.002085
3075.0537,-0.002118
3076.9174,-0.002303
3078.7811,-0.002448
3080.6447,-0.002529
3082.5084,-0.002642
3084.3721,-0.002731
3086.2357,-0.002939
3088.0994,-0.002864
3089.9631,-0.002621
3091.8267,-0.002234
3093.6904,-0.001744
3095.5541,-0.001951
3097.4177,-0.002423
3099.2814,-0.002179
3101.1451,-0.002108
3103.0087,-0.002352
3104.8724,-0.002228
3106.7361,-0.001930
3108.5998,-0.001964
3110.4634,-0.002345
3112.3271,-0.002804
3114.1908,-0.003211
3116.0544,-0.003187
3117.9181,-0.002437
3119.7818,-0.002033
3121.6454,-0.002018
3123.5091,-0.002081
3125.3728,-0.002068
3127.2364,-0.002279
3129.1001,-0.002480
3130.9638,-0.002046
3132.8275,-0.001834
3134.6911,-0.002196
3136.5548,-0.002606
3138.4185,-0.002642
3140.2821,-0.002255
3142.1458,-0.002401
3144.0095,-0.002582
3145.8731,-0.002489
3147.7368,-0.002499
3149.6005,-0.002218
3151.4641,-0.001936
3153.3278,-0.002100
3155.1915,-0.002362
3157.0551,-0.002547
3158.9188,-0.002386
3160.7825,-0.002068
3162.6462,-0.001916
3164.5098,-0.001417
3166.3735,-0.001614
3168.2372,-0.002440
3170.1008,-0.002468
3171.9645,-0.002196
3173.8282,-0.002330
3175.6918,-0.002358
3177.5555,-0.002581
3179.4192,-0.002254
3181.2828,-0.001688
3183.1465,-0.002026
3185.0102,-0.002182
3186.8739,-0.002056
3188.7375,-0.002107
3190.6012,-0.002188
3192.4649,-0.002157
3194.3285,-0.001971
3196.1922,-0.002182
3198.0559,-0.002343
3199.9195,-0.001979
3201.7832,-0.001989
3203.6469,-0.002174
3205.5105,-0.001867
3207.3742,-0.001881
3209.2379,-0.002218
3211.1015,-0.001973
3212.9652,-0.001917
3214.8289,-0.002310
3216.6926,-0.002434
3218.5562,-0.002478
3220.4199,-0.002103
3222.2836,-0.001909
3224.1472,-0.002205
3226.0109,-0.002021
3227.8746,-0.001570
3229.7382,-0.001828
3231.6019,-0.002376
3233.4656,-0.002110
3235.3292,-0.001927
3237.1929,-0.002144
3239.0566,-0.002158
3240.9202,-0.002206
3242.7839,-0.002074
3244.6476,-0.001892
3246.5113,-0.002533
3248.3749,-0.002617
3250.2386,-0.001990
3252.1023,-0.001482
3253.9659,-0.001119
3255.8296,-0.001696
3257.6933,-0.002141
3259.5569,-0.001666
3261.4206,-0.001931
3263.2843,-0.002789
3265.1479,-0.003084
3267.0116,-0.002579
3268.8753,-0.002136
3270.7390,-0.002174
3272.6026,-0.001674
3274.4663,-0.001614
3276.3300,-0.001421
3278.1936,-0.001719
3280.0573,-0.002212
3281.9210,-0.001712
3283.7846,-0.001793
3285.6483,-0.002239
3287.5120,-0.002293
3289.3756,-0.002408
3291.2393,-0.001915
3293.1030,-0.001774
3294.9666,-0.001367
3296.8303,-0.000991
3298.6940,-0.001263
3300.5577,-0.001611
3302.4213,-0.001398
3304.2850,-0.001462
3306.1487,-0.002218
3308.0123,-0.002243
3309.8760,-0.001567
3311.7397,-0.001538
3313.6033,-0.001040
3315.4670,-0.000877
3317.3307,-0.002030
3319.1943,-0.002960
3321.0580,-0.002494
3322.9217,-0.001839
3324.7854,-0.001799
3326.6490,-0.001952
3328.5127,-0.001688
3330.3764,-0.001655
3332.2400,-0.002199
3334.1037,-0.002156
3335.9674,-0.001662
3337.8310,-0.001100
3339.6947,-0.001261
3341.5584,-0.001149
3343.4220,-0.001699
3345.2857,-0.002129
3347.1494,-0.002237
3349.0130,-0.002145
3350.8767,-0.001556
3352.7404,-0.001164
3354.6041,-0.001029
3356.4677,-0.001372
3358.3314,-0.001962
3360.1951,-0.001722
3362.0587,-0.001925
3363.9224,-0.002193
3365.7861,-0.001274
3367.6497,-0.000844
3369.5134,-0.001185
3371.3771,-0.000922
3373.2407,-0.001143
3375.1044,-0.002275
3376.9681,-0.002468
3378.8317,-0.002788
3380.6954,-0.002936
3382.5591,-0.002541
3384.4228,-0.001286
3386.2864,0.000064
3388.1501,-0.000281
3390.0138,-0.001287
3391.8774,-0.001953
3393.7411,-0.001816
3395.6048,-0.001839
3397.4684,-0.002019
3399.3321,-0.001967
3401.1958,-0.001662
3403.0594,-0.001422
3404.9231,-0.001102
3406.7868,-0.001637
3408.6505,-0.002446
3410.5141,-0.001442
3412.3778,-0.000507
3414.2415,-0.001185
3416.1051,-0.002586
3417.9688,-0.002757
3419.8325,-0.002087
3421.6961,-0.000626
3423.5598,-0.000324
3425.4235,-0.001960
3427.2871,-0.001748
3429.1508,-0.001542
3431.0145,-0.002213
3432.8781,-0.002011
3434.7418,-0.001787
3436.6055,-0.001845
3438.4692,-0.001767
3440.3328,-0.002467
3442.1965,-0.002922
3444.0602,-0.001458
3445.9238,-0.000688
3447.7875,-0.001457
3449.6512,-0.002242
3451.5148,-0.001068
3453.3785,-0.000681
3455.2422,-0.001310
3457.1058,-0.000790
3458.9695,-0.000691
3460.8332,-0.001483
3462.6969,-0.002014
3464.5605,-0.001882
3466.4242,-0.001500
3468.2879,-0.000985
3470.1515,-0.000786
3472.0152,-0.000646
3473.8789,-0.001135
3475.7425,-0.002078
3477.6062,-0.002964
3479.4699,-0.003143
3481.3335,-0.001952
3483.1972,-0.001267
3485.0609,-0.001512
3486.9245,-0.001057
3488.7882,-0.000802
3490.6519,-0.001393
3492.5156,-0.000733
3494.3792,0.000090
3496.2429,-0.000845
3498.1066,-0.001826
3499.9702,-0.001783
3501.8339,-0.002134
3503.6976,-0.002131
3505.5612,-0.001010
3507.4249,-0.000893
3509.2886,-0.001141
3511.1522,-0.001261
3513.0159,-0.001351
3514.8796,-0.000664
3516.7432,-0.001090
3518.6069,-0.001685
3520.4706,-0.001272
3522.3343,-0.001197
3524.1979,-0.001674
3526.0616,-0.001801
3527.9253,-0.001506
3529.7889,-0.001353
3531.6526,-0.000549
3533.5163,0.000482
3535.3799,0.000592
3537.2436,-0.000012
3539.1073,-0.000703
3540.9709,-0.001234
3542.8346,-0.001723
3544.6983,-0.001629
3546.5620,-0.001195
3548.4256,-0.001404
3550.2893,-0.001240
3552.1530,-0.000774
3554.0166,-0.000832
3555.8803,-0.001099
3557.7440,-0.001254
3559.6076,-0.001001
3561.4713,-0.000613
3563.3350,-0.001469
3565.1986,-0.002965
3567.0623,-0.002900
3568.9260,-0.002282
3570.7896,-0.001868
3572.6533,-0.001463
3574.5170,-0.000722
3576.3807,0.000133
3578.2443,-0.000221
3580.1080,-0.001201
3581.9717,-0.000603
3583.8353,0.000200
3585.6990,0.000412
3587.5627,-0.000074
3589.4263,-0.001247
3591.2900,-0.001077
3593.1537,-0.000405
3595.0173,-0.000858
3596.8810,-0.000144
3598.7447,0.000080
3600.6084,-0.000099
3602.4720,0.000142
3604.3357,-0.000564
3606.1994,-0.001074
3608.0630,-0.000990
3609.9267,-0.000420
3611.7904,-0.000152
3613.6540,-0.001184
3615.5177,-0.001243
3617.3814,-0.000364
3619.2450,-0.000537
3621.1087,-0.000616
3622.9724,-0.000342
3624.8360,-0.000609
3626.6997,-0.000796
3628.5634,-0.000386
3630.4271,0.000414
3632.2907,0.000188
3634.1544,-0.000697
3636.0181,-0.000889
3637.8817,-0.000444
3639.7454,-0.000794
3641.6091,-0.000877
3643.4727,-0.000355
3645.3364,-0.000486
3647.2001,-0.000984
3649.0637,-0.000542
3650.9274,-0.000165
3652.7911,-0.000118
3654.6547,-0.000299
3656.5184,-0.000975
3658.3821,-0.000670
3660.2458,0.000301
3662.1094,0.000070
3663.9731,-0.001142
3665.8368,-0.001137
3667.7004,-0.000569
3669.5641,-0.000898
3671.4278,0.000386
3673.2914,0.001013
3675.1551,0.000236
3677.0188,0.000254
3678.8824,-0.000172
3680.7461,-0.000955
3682.6098,-0.000660
3684.4735,-0.000773
3686.3371,-0.000987
3688.2008,-0.000837
3690.0645,-0.000667
3691.9281,-0.000497
3693.7918,-0.000282
3695.6555,-0.000068
3697.5191,-0.000212
3699.3828,-0.000165
3701.2465,-0.000341
3703.1101,-0.000445
3704.9738,-0.000313
3706.8375,-0.000951
3708.7011,-0.001603
3710.5648,-0.000980
3712.4285,-0.000557
3714.2922,-0.000467
3716.1558,-0.000804
3718.0195,-0.001134
3719.8832,-0.000957
3721.7468,-0.000554
3723.6105,-0.000002
3725.4742,0.000352
3727.3378,0.000419
3729.2015,0.000249
3731.0652,-0.000262
3732.9288,-0.000347
3734.7925,0.000087
3736.6562,-0.000209
3738.5199,-0.000355
3740.3835,-0.000309
3742.2472,-0.000702
3744.1109,-0.000452
3745.9745,-0.000391
3747.8382,0.000346
3749.7019,-0.000492
3751.5655,-0.002046
3753.4292,-0.001026
3755.2929,0.000099
3757.1565,0.000200
3759.0202,0.000248
3760.8839,0.000002
3762.7475,-0.000395
3764.6112,-0.000489
3766.4749,-0.000338
3768.3386,-0.000175
3770.2022,-0.000642
3772.0659,-0.000753
3773.9296,-0.000831
3775.7932,-0.000388
3777.6569,0.000414
3779.5206,0.000452
3781.3842,-0.000151
3783.2479,-0.000340
3785.1116,-0.000389
3786.9752,-0.000824
3788.8389,-0.000872
3790.7026,-0.000570
3792.5662,-0.000451
3794.4299,-0.000487
3796.2936,-0.000614
3798.1573,-0.000519
3800.0209,-0.000369
3801.8846,-0.001046
3803.7483,-0.000125
3805.6119,0.000488
3807.4756,-0.000242
3809.3393,-0.000642
3811.2029,-0.000784
3813.0666,-0.000560
3814.9303,-0.000508
3816.7939,-0.000623
3818.6576,0.000373
3820.5213,0.000979
3822.3850,0.000759
3824.2486,-0.000100
3826.1123,-0.001089
3827.9760,-0.000843
3829.8396,-0.000296
3831.7033,-0.000558
3833.5670,-0.000715
3835.4306,-0.000373
3837.2943,-0.000188
3839.1580,-0.000487
3841.0216,0.000234
3842.8853,0.000640
3844.7490,-0.000235
3846.6126,-0.000307
3848.4763,0.000052
3850.3400,-0.000807
3852.2037,-0.001273
3854.0673,-0.000504
3855.9310,-0.000136
3857.7947,0.000286
3859.6583,0.000320
3861.5220,-0.000075
3863.3857,-0.000959
3865.2493,-0.000779
3867.1130,0.000133
3868.9767,-0.000403
3870.8403,-0.001035
3872.7040,-0.000567
3874.5677,-0.000768
3876.4314,-0.000658
3878.2950,-0.000516
3880.1587,-0.000744
3882.0224,-0.000152
3883.8860,0.000426
3885.7497,-0.000037
3887.6134,-0.000269
3889.4770,-0.000572
3891.3407,-0.001019
3893.2044,-0.000662
3895.0680,0.000011
3896.9317,-0.000638
3898.7954,-0.000738
3900.6590,0.000624
3902.5227,0.000877
3904.3864,0.000370
3906.2501,-0.000226
3908.1137,-0.000605
3909.9774,-0.000216
3911.8411,-0.000053
3913.7047,-0.000511
3915.5684,-0.001094
3917.4321,-0.001135
3919.2957,-0.001231
3921.1594,-0.001509
3923.0231,-0.000946
3924.8867,-0.000047
3926.7504,-0.000212
3928.6141,-0.000523
3930.4777,-0.000120
3932.3414,0.000002
3934.2051,-0.000431
3936.0688,-0.000295
3937.9324,0.000110
3939.7961,-0.000345
3941.6598,-0.000808
3943.5234,-0.000730
3945.3871,-0.000268
3947.2508,-0.000347
3949.1144,-0.000498
3950.9781,-0.000467
3952.8418,0.000132
3954.7054,0.000219
3956.5691,-0.000451
3958.4328,-0.000687
3960.2965,-0.000387
3962.1601,-0.000145
3964.0238,-0.000664
3965.8875,-0.000521
3967.7511,0.000019
3969.6148,-0.000224
3971.4785,-0.000217
3973.3421,-0.000020
3975.2058,-0.000259
3977.0695,-0.000559
3978.9331,-0.000329
3980.7968,0.000197
3982.6605,0.000245
3984.5241,-0.000361
3986.3878,-0.000216
3988.2515,0.000700
3990.1152,0.000799
3991.9788,0.000007
3993.8425,-0.000464
3995.7062,-0.000599
3997.5698,-0.000051
3999.4335,0.000391
4001.2972,-0.000734
4003.1608,-0.000483
4005.0245,0.000196
4006.8882,-0.000264
4008.7518,-0.000362
4010.6155,0.000116
4012.4792,-0.000005
4014.3429,-0.000382
4016.2065,-0.000216
4018.0702,-0.000645
4019.9339,-0.000560
4021.7975,0.000357
4023.6612,0.000281
4025.5249,-0.000352
4027.3885,0.000060
4029.2522,0.000190
4031.1159,-0.000034
4032.9795,-0.000008
4034.8432,-0.000302
4036.7069,-0.000186
4038.5705,0.000150
4040.4342,-0.000097
4042.2979,-0.000504
4044.1616,-0.000179
4046.0252,0.000049
4047.8889,0.000182
4049.7526,0.000458
4051.6162,0.000231
4053.4799,0.000186
4055.3436,0.000064
4057.2072,-0.000270
4059.0709,-0.000554
4060.9346,-0.000350
4062.7982,-0.000111
4064.6619,-0.000072
4066.5256,-0.000224
4068.3892,-0.000060
4070.2529,0.000599
4072.1166,0.000406
4073.9803,-0.000196
4075.8439,0.000016
4077.7076,0.000181
4079.5713,0.000293
4081.4349,0.000044
4083.2986,0.000084
4085.1623,0.000529
4087.0259,0.000070
4088.8896,0.000056
4090.7533,0.000843
4092.6169,0.000659
4094.4806,-0.000065
4096.3443,-0.000585
4098.2080,-0.000493
4100.0716,0.000071
