Wavenumber,Intensity
600.1014,0.240276
601.9651,0.236928
603.8287,0.222233
605.6924,0.233922
607.5561,0.245157
609.4197,0.239613
611.2834,0.234418
613.1471,0.241102
615.0107,0.242755
616.8744,0.236887
618.7381,0.232066
620.6017,0.227834
622.4654,0.231458
624.3291,0.245267
626.1928,0.249098
628.0564,0.240078
629.9201,0.241460
631.7838,0.241355
633.6474,0.235579
635.5111,0.238291
637.3748,0.241655
639.2384,0.241777
641.1021,0.245076
642.9658,0.247406
644.8294,0.243544
646.6931,0.243143
648.5568,0.246870
650.4205,0.247050
652.2841,0.243996
654.1478,0.239855
656.0115,0.236492
657.8751,0.236905
659.7388,0.239662
661.6025,0.241057
663.4661,0.239584
665.3298,0.238642
667.1935,0.237642
669.0571,0.237157
670.9208,0.237212
672.7845,0.236453
674.6481,0.235275
676.5118,0.233360
678.3755,0.229493
680.2392,0.226295
682.1028,0.223438
683.9665,0.220261
685.8302,0.215905
687.6938,0.211371
689.5575,0.207435
691.4212,0.204082
693.2848,0.200722
695.1485,0.197684
697.0122,0.195354
698.8758,0.194283
700.7395,0.194296
702.6032,0.195296
704.4669,0.196728
706.3305,0.198283
708.1942,0.199934
710.0579,0.202462
711.9215,0.204892
713.7852,0.207395
715.6489,0.210616
717.5125,0.213931
719.3762,0.216490
721.2399,0.217629
723.1035,0.218212
724.9672,0.219561
726.8309,0.219434
728.6945,0.217681
730.5582,0.215835
732.4219,0.214854
734.2856,0.213462
736.1492,0.212406
738.0129,0.212406
739.8766,0.212402
741.7402,0.212086
743.6039,0.211203
745.4676,0.209676
747.3312,0.208830
749.1949,0.208532
751.0586,0.208260
752.9222,0.208322
754.7859,0.208880
756.6496,0.208893
758.5132,0.208995
760.3769,0.208783
762.2406,0.207298
764.1043,0.205065
765.9679,0.202793
767.8316,0.200828
769.6953,0.199035
771.5589,0.197522
773.4226,0.195831
775.2863,0.194148
777.1499,0.193365
779.0136,0.192967
780.8773,0.192300
782.7409,0.192041
784.6046,0.193110
786.4683,0.194414
788.3320,0.195131
790.1956,0.194513
792.0593,0.193880
793.9230,0.193732
795.7866,0.193849
797.6503,0.194702
799.5140,0.196269
801.3776,0.197846
803.2413,0.199535
805.1050,0.201606
806.9686,0.203538
808.8323,0.205371
810.6960,0.207603
812.5596,0.209839
814.4233,0.212007
816.2870,0.213999
818.1507,0.215693
820.0143,0.216773
821.8780,0.217284
823.7417,0.217577
825.6053,0.217999
827.4690,0.219159
829.3327,0.221291
831.1963,0.223717
833.0600,0.227059
834.9237,0.231139
836.7873,0.235671
838.6510,0.240847
840.5147,0.246272
842.3784,0.251501
844.2420,0.257540
846.1057,0.264020
847.9694,0.270844
849.8330,0.277990
851.6967,0.285018
853.5604,0.291756
855.4240,0.298389
857.2877,0.305124
859.1514,0.311941
861.0150,0.318352
862.8787,0.324411
864.7424,0.330254
866.6060,0.335827
868.4697,0.340783
870.3334,0.345745
872.1971,0.350608
874.0607,0.355434
875.9244,0.360259
877.7881,0.365454
879.6517,0.370913
881.5154,0.376550
883.3791,0.382466
885.2427,0.388989
887.1064,0.395859
888.9701,0.402929
890.8337,0.410369
892.6974,0.418099
894.5611,0.425907
896.4247,0.434297
898.2884,0.442657
900.1521,0.450710
902.0158,0.458505
903.8794,0.466267
905.7431,0.473293
907.6068,0.479783
909.4704,0.485758
911.3341,0.491429
913.1978,0.496771
915.0614,0.501993
916.9251,0.506603
918.7888,0.511149
920.6524,0.515696
922.5161,0.520579
924.3798,0.525290
926.2435,0.530198
928.1071,0.534631
929.9708,0.539222
931.8345,0.544071
933.6981,0.549074
935.5618,0.554266
937.4255,0.559604
939.2891,0.564397
941.1528,0.569038
943.0165,0.572556
944.8801,0.574803
946.7438,0.576019
948.6075,0.575712
950.4711,0.573341
952.3348,0.569759
954.1985,0.564985
956.0622,0.559329
957.9258,0.552829
959.7895,0.546274
961.6532,0.539977
963.5168,0.533786
965.3805,0.527496
967.2442,0.521809
969.1078,0.516757
970.9715,0.512767
972.8352,0.509259
974.6988,0.506142
976.5625,0.502907
978.4262,0.499820
980.2899,0.496247
982.1535,0.492048
984.0172,0.487011
985.8809,0.481285
987.7445,0.474410
989.6082,0.466467
991.4719,0.457491
993.3355,0.447888
995.1992,0.437719
997.0629,0.426701
998.9265,0.415054
1000.7902,0.403683
1002.6539,0.392308
1004.5175,0.380770
1006.3812,0.368970
1008.2449,0.357282
1010.1086,0.345602
1011.9722,0.334157
1013.8359,0.322750
1015.6996,0.311492
1017.5632,0.300599
1019.4269,0.290242
1021.2906,0.280523
1023.1542,0.271603
1025.0179,0.263097
1026.8816,0.254991
1028.7452,0.247335
1030.6089,0.240138
1032.4726,0.233108
1034.3362,0.226497
1036.1999,0.220329
1038.0636,0.214438
1039.9273,0.208872
1041.7909,0.203783
1043.6546,0.199103
1045.5183,0.194805
1047.3819,0.190813
1049.2456,0.187115
1051.1093,0.183785
1052.9729,0.180738
1054.8366,0.177598
1056.7003,0.174582
1058.5639,0.171846
1060.4276,0.169108
1062.2913,0.166335
1064.1550,0.163642
1066.0186,0.160849
1067.8823,0.158155
1069.7460,0.155347
1071.6096,0.152338
1073.4733,0.149262
1075.3370,0.146279
1077.2006,0.143167
1079.0643,0.139944
1080.9280,0.136726
1082.7916,0.133644
1084.6553,0.130578
1086.5190,0.127426
1088.3826,0.124289
1090.2463,0.121233
1092.1100,0.118181
1093.9737,0.115077
1095.8373,0.111844
1097.7010,0.108660
1099.5647,0.105658
1101.4283,0.102636
1103.2920,0.099608
1105.1557,0.096727
1107.0193,0.093842
1108.8830,0.091044
1110.7467,0.088325
1112.6103,0.085554
1114.4740,0.082875
1116.3377,0.080322
1118.2014,0.077805
1120.0650,0.075489
1121.9287,0.073397
1123.7924,0.071414
1125.6560,0.069515
1127.5197,0.067694
1129.3834,0.066064
1131.2470,0.064755
1133.1107,0.063445
1134.9744,0.062185
1136.8380,0.061104
1138.7017,0.060099
1140.5654,0.059171
1142.4290,0.058227
1144.2927,0.057356
1146.1564,0.056638
1148.0201,0.055868
1149.8837,0.055048
1151.7474,0.054306
1153.6111,0.053510
1155.4747,0.052587
1157.3384,0.051626
1159.2021,0.050629
1161.0657,0.049675
1162.9294,0.048613
1164.7931,0.047370
1166.6567,0.046051
1168.5204,0.044641
1170.3841,0.043284
1172.2477,0.041994
1174.1114,0.040690
1175.9751,0.039432
1177.8388,0.038165
1179.7024,0.036809
1181.5661,0.035499
1183.4298,0.034241
1185.2934,0.033003
1187.1571,0.031777
1189.0208,0.030603
1190.8844,0.029445
1192.7481,0.028265
1194.6118,0.027098
1196.4754,0.025925
1198.3391,0.024940
1200.2028,0.024043
1202.0665,0.023143
1203.9301,0.022265
1205.7938,0.021431
1207.6575,0.020628
1209.5211,0.019884
1211.3848,0.019225
1213.2485,0.018605
1215.1121,0.017988
1216.9758,0.017499
1218.8395,0.017104
1220.7031,0.016701
1222.5668,0.016304
1224.4305,0.016013
1226.2941,0.015816
1228.1578,0.015523
1230.0215,0.015239
1231.8852,0.015029
1233.7488,0.014797
1235.6125,0.014639
1237.4762,0.014428
1239.3398,0.014265
1241.2035,0.014204
1243.0672,0.014089
1244.9308,0.013879
1246.7945,0.013679
1248.6582,0.013617
1250.5218,0.013560
1252.3855,0.013430
1254.2492,0.013302
1256.1129,0.013192
1257.9765,0.013166
1259.8402,0.013141
1261.7039,0.013070
1263.5675,0.013049
1265.4312,0.012915
1267.2949,0.012786
1269.1585,0.012804
1271.0222,0.012855
1272.8859,0.012820
1274.7495,0.012754
1276.6132,0.012716
1278.4769,0.012692
1280.3405,0.012711
1282.2042,0.012711
1284.0679,0.012687
1285.9316,0.012669
1287.7952,0.012735
1289.6589,0.012782
1291.5226,0.012767
1293.3862,0.012757
1295.2499,0.012762
1297.1136,0.012775
1298.9772,0.012779
1300.8409,0.012799
1302.7046,0.012810
1304.5682,0.012840
1306.4319,0.012872
1308.2956,0.012960
1310.1592,0.013007
1312.0229,0.013119
1313.8866,0.013306
1315.7503,0.013314
1317.6139,0.013302
1319.4776,0.013382
1321.3413,0.013313
1323.2049,0.013172
1325.0686,0.013191
1326.9323,0.013295
1328.7959,0.013373
1330.6596,0.013435
1332.5233,0.013473
1334.3869,0.013548
1336.2506,0.013693
1338.1143,0.013922
1339.9780,0.014170
1341.8416,0.013971
1343.7053,0.013774
1345.5690,0.013750
1347.4326,0.013859
1349.2963,0.013949
1351.1600,0.013939
1353.0236,0.013982
1354.8873,0.014112
1356.7510,0.014303
1358.6146,0.014404
1360.4783,0.014543
1362.3420,0.015008
1364.2056,0.015058
1366.0693,0.014757
1367.9330,0.014793
1369.7967,0.014966
1371.6603,0.015023
1373.5240,0.015138
1375.3877,0.015118
1377.2513,0.015092
1379.1150,0.015252
1380.9787,0.015394
1382.8423,0.015494
1384.7060,0.015516
1386.5697,0.015982
1388.4333,0.016175
1390.2970,0.016022
1392.1607,0.016004
1394.0244,0.016515
1395.8880,0.016748
1397.7517,0.016833
1399.6154,0.016952
1401.4790,0.016565
1403.3427,0.016726
1405.2064,0.016991
1407.0700,0.016892
1408.9337,0.016948
1410.7974,0.017368
1412.6610,0.017497
1414.5247,0.017672
1416.3884,0.017866
1418.2520,0.018280
1420.1157,0.018304
1421.9794,0.018042
1423.8431,0.018162
1425.7067,0.017961
1427.5704,0.017979
1429.4341,0.018234
1431.2977,0.018327
1433.1614,0.018088
1435.0251,0.018094
1436.8887,0.018510
1438.7524,0.018123
1440.6161,0.017942
1442.4797,0.017821
1444.3434,0.017819
1446.2071,0.017982
1448.0707,0.018227
1449.9344,0.017917
1451.7981,0.017908
1453.6618,0.017812
1455.5254,0.018206
1457.3891,0.018915
1459.2528,0.018251
1461.1164,0.017363
1462.9801,0.017126
1464.8438,0.017365
1466.7074,0.017122
1468.5711,0.016881
1470.4348,0.017001
1472.2984,0.017795
1474.1621,0.017487
1476.0258,0.017089
1477.8895,0.016571
1479.7531,0.016364
1481.6168,0.016386
1483.4805,0.016196
1485.3441,0.016252
1487.2078,0.016543
1489.0715,0.016812
1490.9351,0.016656
1492.7988,0.015872
1494.6625,0.015680
1496.5261,0.015963
1498.3898,0.015939
1500.2535,0.015688
1502.1171,0.015327
1503.9808,0.015125
1505.8445,0.016191
1507.7082,0.017166
1509.5718,0.016101
1511.4355,0.015359
1513.2992,0.014857
1515.1628,0.015069
1517.0265,0.015551
1518.8902,0.014987
1520.7538,0.015384
1522.6175,0.015536
1524.4812,0.015191
1526.3448,0.014950
1528.2085,0.014710
1530.0722,0.014364
1531.9359,0.014160
1533.7995,0.014636
1535.6632,0.014380
1537.5269,0.014345
1539.3905,0.015098
1541.2542,0.015268
1543.1179,0.014675
1544.9815,0.014464
1546.8452,0.013784
1548.7089,0.013865
1550.5725,0.014104
1552.4362,0.014097
1554.2999,0.014471
1556.1635,0.014214
1558.0272,0.015023
1559.8909,0.015650
1561.7546,0.014263
1563.6182,0.013810
1565.4819,0.013822
1567.3456,0.013769
1569.2092,0.014322
1571.0729,0.014633
1572.9366,0.014345
1574.8002,0.014550
1576.6639,0.015339
1578.5276,0.014880
1580.3912,0.014627
1582.2549,0.014820
1584.1186,0.015061
1585.9822,0.015209
1587.8459,0.015558
1589.7096,0.015800
1591.5733,0.016039
1593.4369,0.016410
1595.3006,0.016848
1597.1643,0.017146
1599.0279,0.017248
1600.8916,0.017550
1602.7553,0.018165
1604.6189,0.018563
1606.4826,0.018996
1608.3463,0.019707
1610.2099,0.020231
1612.0736,0.020685
1613.9373,0.021107
1615.8010,0.022514
1617.6646,0.023821
1619.5283,0.023742
1621.3920,0.024073
1623.2556,0.025360
1625.1193,0.025855
1626.9830,0.026138
1628.8466,0.026686
1630.7103,0.026906
1632.5740,0.026955
1634.4376,0.028278
1636.3013,0.029840
1638.1650,0.029100
1640.0286,0.028541
1641.8923,0.028454
1643.7560,0.028500
1645.6197,0.029225
1647.4833,0.030140
1649.3470,0.029025
1651.2107,0.028537
1653.0743,0.030482
1654.9380,0.029588
1656.8017,0.027796
1658.6653,0.026938
1660.5290,0.026666
1662.3927,0.026862
1664.2563,0.026505
1666.1200,0.025832
1667.9837,0.025665
1669.8474,0.026031
1671.7110,0.025383
1673.5747,0.024542
1675.4384,0.024389
1677.3020,0.023366
1679.1657,0.022789
1681.0294,0.022257
1682.8930,0.022629
1684.7567,0.023419
1686.6204,0.021901
1688.4840,0.020814
1690.3477,0.020147
1692.2114,0.019518
1694.0750,0.019235
1695.9387,0.019696
1697.8024,0.018908
1699.6661,0.019094
1701.5297,0.018144
1703.3934,0.017314
1705.2571,0.017115
1707.1207,0.016715
1708.9844,0.016057
1710.8481,0.015525
1712.7117,0.015404
1714.5754,0.015513
1716.4391,0.015744
1718.3027,0.015897
1720.1664,0.014874
1722.0301,0.014318
1723.8937,0.013891
1725.7574,0.013671
1727.6211,0.013702
1729.4848,0.013911
1731.3484,0.013801
1733.2121,0.014342
1735.0758,0.014194
1736.9394,0.013291
1738.8031,0.013141
1740.6668,0.013226
1742.5304,0.013470
1744.3941,0.013218
1746.2578,0.013034
1748.1214,0.013122
1749.9851,0.013227
1751.8488,0.013346
1753.7125,0.012883
1755.5761,0.012711
1757.4398,0.012552
1759.3035,0.012498
1761.1671,0.012841
1763.0308,0.012863
1764.8945,0.012582
1766.7581,0.012723
1768.6218,0.012760
1770.4855,0.012776
1772.3491,0.013315
1774.2128,0.013053
1776.0765,0.012646
1777.9401,0.012280
1779.8038,0.012504
1781.6675,0.012752
1783.5312,0.012807
1785.3948,0.012667
1787.2585,0.012460
1789.1222,0.012297
1790.9858,0.012653
1792.8495,0.013027
1794.7132,0.012860
1796.5768,0.012701
1798.4405,0.012567
1800.3042,0.012697
1802.1678,0.012849
1804.0315,0.012655
1805.8952,0.012317
1807.7589,0.012445
1809.6225,0.012868
1811.4862,0.012964
1813.3499,0.012618
1815.2135,0.012206
1817.0772,0.012053
1818.9409,0.012345
1820.8045,0.012641
1822.6682,0.012701
1824.5319,0.012850
1826.3955,0.012651
1828.2592,0.012498
1830.1229,0.012585
1831.9865,0.012352
1833.8502,0.012232
1835.7139,0.012249
1837.5776,0.012474
1839.4412,0.012428
1841.3049,0.012235
1843.1686,0.012470
1845.0322,0.012926
1846.8959,0.012880
1848.7596,0.012590
1850.6232,0.012271
1852.4869,0.012269
1854.3506,0.012123
1856.2142,0.012281
1858.0779,0.012416
1859.9416,0.012516
1861.8052,0.012515
1863.6689,0.012346
1865.5326,0.012479
1867.3963,0.013044
1869.2599,0.013046
1871.1236,0.012564
1872.9873,0.012214
1874.8509,0.012464
1876.7146,0.012648
1878.5783,0.012376
1880.4419,0.012327
1882.3056,0.012527
1884.1693,0.012464
1886.0329,0.012431
1887.8966,0.012389
1889.7603,0.012257
1891.6240,0.012095
1893.4876,0.012146
1895.3513,0.012258
1897.2150,0.012346
1899.0786,0.012312
1900.9423,0.012346
1902.8060,0.012246
1904.6696,0.012394
1906.5333,0.012479
1908.3970,0.012403
1910.2606,0.012263
1912.1243,0.012213
1913.9880,0.012375
1915.8516,0.012334
1917.7153,0.012280
1919.5790,0.012808
1921.4427,0.013084
1923.3063,0.012648
1925.1700,0.012075
1927.0337,0.011984
1928.8973,0.012174
1930.7610,0.012273
1932.6247,0.012102
1934.4883,0.011992
1936.3520,0.011932
1938.2157,0.012052
1940.0793,0.012427
1941.9430,0.012925
1943.8067,0.012570
1945.6704,0.012282
1947.5340,0.012413
1949.3977,0.012622
1951.2614,0.012171
1953.1250,0.011438
1954.9887,0.011186
1956.8524,0.011449
1958.7160,0.011718
1960.5797,0.011951
1962.4434,0.011850
1964.3070,0.011738
1966.1707,0.011543
1968.0344,0.011710
1969.8980,0.011995
1971.7617,0.011846
1973.6254,0.011333
1975.4891,0.011097
1977.3527,0.011483
1979.2164,0.012057
1981.0801,0.011989
1982.9437,0.011995
1984.8074,0.012068
1986.6711,0.012834
1988.5347,0.013611
1990.3984,0.013103
1992.2621,0.012492
1994.1257,0.012757
1995.9894,0.012936
1997.8531,0.012912
1999.7167,0.012074
2001.5804,0.011246
2003.4441,0.011576
2005.3078,0.011941
2007.1714,0.011367
2009.0351,0.011376
2010.8988,0.012199
2012.7624,0.012442
2014.6261,0.012431
2016.4898,0.012138
2018.3534,0.011381
2020.2171,0.011713
2022.0808,0.011523
2023.9444,0.011151
2025.8081,0.011686
2027.6718,0.011760
2029.5355,0.011709
2031.3991,0.012461
2033.2628,0.012748
2035.1265,0.012483
2036.9901,0.012298
2038.8538,0.012351
2040.7175,0.012619
2042.5811,0.012324
2044.4448,0.011926
2046.3085,0.012379
2048.1721,0.012816
2050.0358,0.013177
2051.8995,0.013002
2053.7631,0.012532
2055.6268,0.012617
2057.4905,0.012877
2059.3542,0.012822
2061.2178,0.012653
2063.0815,0.012542
2064.9452,0.012908
2066.8088,0.013063
2068.6725,0.012966
2070.5362,0.013095
2072.3998,0.013419
2074.2635,0.013584
2076.1272,0.013329
2077.9908,0.012939
2079.8545,0.013148
2081.7182,0.013619
2083.5819,0.013656
2085.4455,0.013122
2087.3092,0.012667
2089.1729,0.012666
2091.0365,0.013001
2092.9002,0.012968
2094.7639,0.012727
2096.6275,0.012803
2098.4912,0.013260
2100.3549,0.013535
2102.2185,0.013211
2104.0822,0.012610
2105.9459,0.012718
2107.8095,0.013129
2109.6732,0.013234
2111.5369,0.013361
2113.4006,0.013606
2115.2642,0.013454
2117.1279,0.013000
2118.9916,0.012747
2120.8552,0.012823
2122.7189,0.012935
2124.5826,0.012702
2126.4462,0.012338
2128.3099,0.012228
2130.1736,0.012050
2132.0372,0.012134
2133.9009,0.012489
2135.7646,0.012573
2137.6282,0.012536
2139.4919,0.012376
2141.3556,0.011677
2143.2193,0.011468
2145.0829,0.011518
2146.9466,0.011450
2148.8103,0.011637
2150.6739,0.012101
2152.5376,0.012175
2154.4013,0.011373
2156.2649,0.010011
2158.1286,0.009720
2159.9923,0.011916
2161.8559,0.013666
2163.7196,0.013166
2165.5833,0.012736
2167.4470,0.013034
2169.3106,0.013437
2171.1743,0.013311
2173.0380,0.012476
2174.9016,0.012240
2176.7653,0.013269
2178.6290,0.013233
2180.4926,0.012333
2182.3563,0.012738
2184.2200,0.013997
2186.0836,0.014215
2187.9473,0.013353
2189.8110,0.012782
2191.6746,0.013071
2193.5383,0.013008
2195.4020,0.012791
2197.2657,0.012951
2199.1293,0.012982
2200.9930,0.012825
2202.8567,0.013237
2204.7203,0.013658
2206.5840,0.013805
2208.4477,0.013612
2210.3113,0.013479
2212.1750,0.013867
2214.0387,0.014155
2215.9023,0.014194
2217.7660,0.014203
2219.6297,0.013911
2221.4934,0.013432
2223.3570,0.013647
2225.2207,0.014124
2227.0844,0.014268
2228.9480,0.014540
2230.8117,0.014528
2232.6754,0.014229
2234.5390,0.013963
2236.4027,0.014140
2238.2664,0.014127
2240.1300,0.014133
2241.9937,0.014191
2243.8574,0.014283
2245.7210,0.014323
2247.5847,0.014234
2249.4484,0.014386
2251.3121,0.014615
2253.1757,0.014336
2255.0394,0.014073
2256.9031,0.014085
2258.7667,0.014272
2260.6304,0.014215
2262.4941,0.014051
2264.3577,0.014181
2266.2214,0.014285
2268.0851,0.014608
2269.9487,0.015142
2271.8124,0.014829
2273.6761,0.014140
2275.5397,0.014107
2277.4034,0.014289
2279.2671,0.014480
2281.1308,0.014961
2282.9944,0.015149
2284.8581,0.014830
2286.7218,0.014799
2288.5854,0.015182
2290.4491,0.015299
2292.3128,0.015273
2294.1764,0.015173
2296.0401,0.015015
2297.9038,0.014836
2299.7674,0.014751
2301.6311,0.014974
2303.4948,0.015097
2305.3585,0.014804
2307.2221,0.014824
2309.0858,0.014910
2310.9495,0.014819
2312.8131,0.014908
2314.6768,0.014822
2316.5405,0.014813
2318.4041,0.014936
2320.2678,0.014747
2322.1315,0.014862
2323.9951,0.015270
2325.8588,0.015112
2327.7225,0.014527
2329.5861,0.014434
2331.4498,0.014474
2333.3135,0.014157
2335.1772,0.014031
2337.0408,0.014226
2338.9045,0.014199
2340.7682,0.014109
2342.6318,0.014280
2344.4955,0.014222
2346.3592,0.014254
2348.2228,0.014391
2350.0865,0.014366
2351.9502,0.014343
2353.8138,0.014049
2355.6775,0.013655
2357.5412,0.013745
2359.4049,0.013955
2361.2685,0.014004
2363.1322,0.014417
2364.9959,0.014240
2366.8595,0.013859
2368.7232,0.013594
2370.5869,0.013481
2372.4505,0.013849
2374.3142,0.014145
2376.1779,0.014163
2378.0415,0.014440
2379.9052,0.014396
2381.7689,0.014329
2383.6325,0.014627
2385.4962,0.014739
2387.3599,0.014462
2389.2236,0.014364
2391.0872,0.014446
2392.9509,0.014572
2394.8146,0.014639
2396.6782,0.014464
2398.5419,0.014258
2400.4056,0.014192
2402.2692,0.014351
2404.1329,0.014486
2405.9966,0.014639
2407.8602,0.014786
2409.7239,0.014637
2411.5876,0.014500
2413.4512,0.014599
2415.3149,0.014743
2417.1786,0.014645
2419.0423,0.014883
2420.9059,0.015112
2422.7696,0.014947
2424.6333,0.014731
2426.4969,0.014700
2428.3606,0.014866
2430.2243,0.014812
2432.0879,0.014578
2433.9516,0.014525
2435.8153,0.014533
2437.6789,0.014724
2439.5426,0.014876
2441.4063,0.014935
2443.2700,0.015012
2445.1336,0.015031
2446.9973,0.014927
2448.8610,0.014626
2450.7246,0.014923
2452.5883,0.015640
2454.4520,0.015557
2456.3156,0.014885
2458.1793,0.014759
2460.0430,0.015019
2461.9066,0.014871
2463.7703,0.014802
2465.6340,0.014738
2467.4976,0.014651
2469.3613,0.014919
2471.2250,0.015042
2473.0887,0.014833
2474.9523,0.014655
2476.8160,0.014534
2478.6797,0.014621
2480.5433,0.014972
2482.4070,0.014987
2484.2707,0.014775
2486.1343,0.014922
2487.9980,0.015218
2489.8617,0.015160
2491.7253,0.015085
2493.5890,0.015269
2495.4527,0.015202
2497.3164,0.015012
2499.1800,0.014894
2501.0437,0.014860
2502.9074,0.014953
2504.7710,0.015130
2506.6347,0.015336
2508.4984,0.015134
2510.3620,0.014814
2512.2257,0.014976
2514.0894,0.015053
2515.9530,0.015101
2517.8167,0.015379
2519.6804,0.015366
2521.5440,0.015286
2523.4077,0.015256
2525.2714,0.014991
2527.1351,0.015180
2528.9987,0.015464
2530.8624,0.015149
2532.7261,0.014598
2534.5897,0.014670
2536.4534,0.014984
2538.3171,0.015067
2540.1807,0.015156
2542.0444,0.015239
2543.9081,0.015117
2545.7717,0.015138
2547.6354,0.015336
2549.4991,0.015543
2551.3627,0.015442
2553.2264,0.015275
2555.0901,0.014994
2556.9538,0.014829
2558.8174,0.015200
2560.6811,0.015372
2562.5448,0.015243
2564.4084,0.015223
2566.2721,0.014936
2568.1358,0.015049
2569.9994,0.015480
2571.8631,0.015665
2573.7268,0.015508
2575.5904,0.014779
2577.4541,0.014761
2579.3178,0.015440
2581.1815,0.015742
2583.0451,0.015476
2584.9088,0.015468
2586.7725,0.015727
2588.6361,0.015604
2590.4998,0.015554
2592.3635,0.015811
2594.2271,0.015736
2596.0908,0.015466
2597.9545,0.015511
2599.8181,0.015686
2601.6818,0.015706
2603.5455,0.015679
2605.4091,0.015615
2607.2728,0.015711
2609.1365,0.015814
2611.0002,0.015552
2612.8638,0.015523
2614.7275,0.015542
2616.5912,0.015615
2618.4548,0.016045
2620.3185,0.016034
2622.1822,0.015622
2624.0458,0.015745
2625.9095,0.015967
2627.7732,0.016082
2629.6368,0.016015
2631.5005,0.015850
2633.3642,0.015750
2635.2279,0.015781
2637.0915,0.015865
2638.9552,0.015872
2640.8189,0.016021
2642.6825,0.015876
2644.5462,0.015634
2646.4099,0.015611
2648.2735,0.015569
2650.1372,0.015738
2652.0009,0.016028
2653.8645,0.016057
2655.7282,0.015882
2657.5919,0.015909
2659.4555,0.016046
2661.3192,0.015992
2663.1829,0.015925
2665.0466,0.015815
2666.9102,0.015680
2668.7739,0.015512
2670.6376,0.015485
2672.5012,0.015573
2674.3649,0.015568
2676.2286,0.015452
2678.0922,0.015451
2679.9559,0.015570
2681.8196,0.015643
2683.6832,0.015613
2685.5469,0.015618
2687.4106,0.015710
2689.2742,0.015733
2691.1379,0.015897
2693.0016,0.015872
2694.8653,0.015882
2696.7289,0.015949
2698.5926,0.015902
2700.4563,0.015760
2702.3199,0.015677
2704.1836,0.015873
2706.0473,0.016062
2707.9109,0.016003
2709.7746,0.015902
2711.6383,0.015925
2713.5019,0.015877
2715.3656,0.015848
2717.2293,0.015966
2719.0930,0.016392
2720.9566,0.016507
2722.8203,0.016179
2724.6840,0.015918
2726.5476,0.015866
2728.4113,0.016056
2730.2750,0.016286
2732.1386,0.016197
2734.0023,0.016115
2735.8660,0.016272
2737.7296,0.016536
2739.5933,0.016553
2741.4570,0.016334
2743.3206,0.016341
2745.1843,0.016597
2747.0480,0.016575
2748.9117,0.016353
2750.7753,0.016436
2752.6390,0.016595
2754.5027,0.016581
2756.3663,0.016405
2758.2300,0.016622
2760.0937,0.016794
2761.9573,0.016668
2763.8210,0.016730
2765.6847,0.016885
2767.5483,0.016794
2769.4120,0.016813
2771.2757,0.016966
2773.1394,0.016952
2775.0030,0.016728
2776.8667,0.016605
2778.7304,0.016932
2780.5940,0.017105
2782.4577,0.016758
2784.3214,0.016706
2786.1850,0.017146
2788.0487,0.017159
2789.9124,0.017020
2791.7760,0.017028
2793.6397,0.016995
2795.5034,0.017098
2797.3670,0.016982
2799.2307,0.017096
2801.0944,0.017162
2802.9581,0.017208
2804.8217,0.017391
2806.6854,0.017358
2808.5491,0.017456
2810.4127,0.017524
2812.2764,0.017591
2814.1401,0.017559
2816.0037,0.017391
2817.8674,0.017444
2819.7311,0.017659
2821.5947,0.017895
2823.4584,0.017921
2825.3221,0.017732
2827.1857,0.017378
2829.0494,0.017288
2830.9131,0.017643
2832.7768,0.017943
2834.6404,0.017895
2836.5041,0.017944
2838.3678,0.017930
2840.2314,0.017673
2842.0951,0.017481
2843.9588,0.017646
2845.8224,0.017826
2847.6861,0.017965
2849.5498,0.017991
2851.4134,0.017882
2853.2771,0.017881
2855.1408,0.018049
2857.0045,0.017978
2858.8681,0.017909
2860.7318,0.018135
2862.5955,0.018122
2864.4591,0.018144
2866.3228,0.018482
2868.1865,0.018470
2870.0501,0.018564
2871.9138,0.018765
2873.7775,0.018772
2875.6411,0.018455
2877.5048,0.018138
2879.3685,0.018552
2881.2321,0.019103
2883.0958,0.019147
2884.9595,0.019005
2886.8232,0.018585
2888.6868,0.018451
2890.5505,0.018671
2892.4142,0.018906
2894.2778,0.018896
2896.1415,0.018911
2898.0052,0.019045
2899.8688,0.019149
2901.7325,0.019073
2903.5962,0.019059
2905.4598,0.019483
2907.3235,0.019794
2909.1872,0.019351
2911.0509,0.018913
2912.9145,0.019219
2914.7782,0.019671
2916.6419,0.019969
2918.5055,0.019737
2920.3692,0.019517
2922.2329,0.019545
2924.0965,0.019402
2925.9602,0.019471
2927.8239,0.019751
2929.6875,0.020201
2931.5512,0.020332
2933.4149,0.020292
2935.2785,0.020163
2937.1422,0.020020
2939.0059,0.020140
2940.8696,0.020567
2942.7332,0.020820
2944.5969,0.020739
2946.4606,0.020660
2948.3242,0.020306
2950.1879,0.020328
2952.0516,0.020458
2953.9152,0.020714
2955.7789,0.020895
2957.6426,0.021051
2959.5062,0.021100
2961.3699,0.021291
2963.2336,0.021624
2965.0972,0.021627
2966.9609,0.021425
2968.8246,0.021237
2970.6883,0.021300
2972.5519,0.021240
2974.4156,0.021522
2976.2793,0.021987
2978.1429,0.021805
2980.0066,0.022078
2981.8703,0.022308
2983.7339,0.022051
2985.5976,0.022181
2987.4613,0.022266
2989.3249,0.022090
2991.1886,0.021867
2993.0523,0.022160
2994.9160,0.022435
2996.7796,0.022837
2998.6433,0.023360
3000.5070,0.023295
3002.3706,0.023187
3004.2343,0.023628
3006.0980,0.023654
3007.9616,0.023294
3009.8253,0.023448
3011.6890,0.023841
3013.5526,0.023537
3015.4163,0.023609
3017.2800,0.023597
3019.1436,0.023560
3021.0073,0.024004
3022.8710,0.024044
3024.7347,0.024204
3026.5983,0.024486
3028.4620,0.024436
3030.3257,0.024732
3032.1893,0.024953
3034.0530,0.025039
3035.9167,0.024755
3037.7803,0.024657
3039.6440,0.025022
3041.5077,0.025384
3043.3713,0.025681
3045.2350,0.026048
3047.0987,0.025911
3048.9624,0.025366
3050.8260,0.025761
3052.6897,0.026300
3054.5534,0.026061
3056.4170,0.025638
3058.2807,0.025797
3060.1444,0.026237
3062.0080,0.026801
3063.8717,0.027129
3065.7354,0.027125
3067.5990,0.027153
3069.4627,0.027438
3071.3264,0.027488
3073.1900,0.027355
3075.0537,0.027251
3076.9174,0.027363
3078.7811,0.027776
3080.6447,0.027959
3082.5084,0.027578
3084.3721,0.027723
3086.2357,0.028281
3088.0994,0.028478
3089.9631,0.028781
3091.8267,0.029197
3093.6904,0.028974
3095.5541,0.028839
3097.4177,0.029182
3099.2814,0.029275
3101.1451,0.029589
3103.0087,0.029844
3104.8724,0.030238
3106.7361,0.030537
3108.5998,0.030501
3110.4634,0.030566
3112.3271,0.030776
3114.1908,0.031375
3116.0544,0.031812
3117.9181,0.031202
3119.7818,0.030818
3121.6454,0.031575
3123.5091,0.032126
3125.3728,0.032055
3127.2364,0.032026
3129.1001,0.032255
3130.9638,0.032409
3132.8275,0.032135
3134.6911,0.032125
3136.5548,0.032770
3138.4185,0.033414
3140.2821,0.033555
3142.1458,0.033341
3144.0095,0.033286
3145.8731,0.034069
3147.7368,0.034809
3149.6005,0.035471
3151.4641,0.034815
3153.3278,0.034555
3155.1915,0.035346
3157.0551,0.035392
3158.9188,0.035043
3160.7825,0.034737
3162.6462,0.035490
3164.5098,0.036482
3166.3735,0.036498
3168.2372,0.036369
3170.1008,0.035745
3171.9645,0.035491
3173.8282,0.036127
3175.6918,0.036751
3177.5555,0.036799
3179.4192,0.037251
3181.2828,0.037516
3183.1465,0.037486
3185.0102,0.037682
3186.8739,0.038122
3188.7375,0.038241
3190.6012,0.038247
3192.4649,0.038017
3194.3285,0.038348
3196.1922,0.038975
3198.0559,0.039130
3199.9195,0.039349
3201.7832,0.039661
3203.6469,0.039422
3205.5105,0.039835
3207.3742,0.040277
3209.2379,0.040243
3211.1015,0.040703
3212.9652,0.041211
3214.8289,0.040521
3216.6926,0.040000
3218.5562,0.039776
3220.4199,0.040617
3222.2836,0.041203
3224.1472,0.040189
3226.0109,0.040225
3227.8746,0.040746
3229.7382,0.040432
3231.6019,0.040675
3233.4656,0.041411
3235.3292,0.041200
3237.1929,0.041636
3239.0566,0.042284
3240.9202,0.041811
3242.7839,0.041696
3244.6476,0.041800
3246.5113,0.041347
3248.3749,0.041704
3250.2386,0.042201
3252.1023,0.042339
3253.9659,0.042422
3255.8296,0.042563
3257.6933,0.043037
3259.5569,0.042883
3261.4206,0.042196
3263.2843,0.041776
3265.1479,0.042574
3267.0116,0.043262
3268.8753,0.043217
3270.7390,0.043431
3272.6026,0.043116
3274.4663,0.042527
3276.3300,0.042952
3278.1936,0.043615
3280.0573,0.043471
3281.9210,0.043566
3283.7846,0.043396
3285.6483,0.042738
3287.5120,0.043642
3289.3756,0.044557
3291.2393,0.043900
3293.1030,0.043481
3294.9666,0.043114
3296.8303,0.043555
3298.6940,0.044329
3300.5577,0.044216
3302.4213,0.043606
3304.2850,0.043275
3306.1487,0.043740
3308.0123,0.044446
3309.8760,0.044449
3311.7397,0.043910
3313.6033,0.043812
3315.4670,0.043832
3317.3307,0.043712
3319.1943,0.043008
3321.0580,0.044579
3322.9217,0.046518
3324.7854,0.045860
3326.6490,0.044181
3328.5127,0.043783
3330.3764,0.044279
3332.2400,0.044977
3334.1037,0.044983
3335.9674,0.044827
3337.8310,0.045156
3339.6947,0.044128
3341.5584,0.043783
3343.4220,0.045824
3345.2857,0.045965
3347.1494,0.044721
3349.0130,0.044626
3350.8767,0.044665
3352.7404,0.044202
3354.6041,0.043418
3356.4677,0.043348
3358.3314,0.043616
3360.1951,0.044955
3362.0587,0.045815
3363.9224,0.045275
3365.7861,0.045439
3367.6497,0.045431
3369.5134,0.044572
3371.3771,0.043646
3373.2407,0.044773
3375.1044,0.045436
3376.9681,0.044575
3378.8317,0.045316
3380.6954,0.046291
3382.5591,0.045656
3384.4228,0.045100
3386.2864,0.044916
3388.1501,0.044284
3390.0138,0.043735
3391.8774,0.044684
3393.7411,0.045330
3395.6048,0.044556
3397.4684,0.043548
3399.3321,0.044355
3401.1958,0.044852
3403.0594,0.043848
3404.9231,0.044187
3406.7868,0.044297
3408.6505,0.043152
3410.5141,0.043094
3412.3778,0.043621
3414.2415,0.043024
3416.1051,0.042760
3417.9688,0.043006
3419.8325,0.042926
3421.6961,0.043531
3423.5598,0.043191
3425.4235,0.043069
3427.2871,0.043415
3429.1508,0.042270
3431.0145,0.041976
3432.8781,0.041956
3434.7418,0.040957
3436.6055,0.041732
3438.4692,0.042087
3440.3328,0.041664
3442.1965,0.041555
3444.0602,0.040905
3445.9238,0.041042
3447.7875,0.042302
3449.6512,0.041898
3451.5148,0.041173
3453.3785,0.041368
3455.2422,0.040452
3457.1058,0.039700
3458.9695,0.040062
3460.8332,0.039382
3462.6969,0.038997
3464.5605,0.040081
3466.4242,0.040453
3468.2879,0.038879
3470.1515,0.038057
3472.0152,0.038925
3473.8789,0.040086
3475.7425,0.039114
3477.6062,0.039168
3479.4699,0.039635
3481.3335,0.038645
3483.1972,0.038957
3485.0609,0.039516
3486.9245,0.039387
3488.7882,0.039079
3490.6519,0.038461
3492.5156,0.038026
3494.3792,0.037921
3496.2429,0.038638
3498.1066,0.038264
3499.9702,0.038092
3501.8339,0.038414
3503.6976,0.038843
3505.5612,0.038522
3507.4249,0.036973
3509.2886,0.038015
3511.1522,0.039304
3513.0159,0.037993
3514.8796,0.037446
3516.7432,0.037967
3518.6069,0.037349
3520.4706,0.037210
3522.3343,0.037433
3524.1979,0.038276
3526.0616,0.038780
3527.9253,0.038022
3529.7889,0.036778
3531.6526,0.037460
3533.5163,0.039216
3535.3799,0.038792
3537.2436,0.038092
3539.1073,0.038407
3540.9709,0.037092
3542.8346,0.035705
3544.6983,0.036864
3546.5620,0.038153
3548.4256,0.037726
3550.2893,0.038279
3552.1530,0.040137
3554.0166,0.038924
3555.8803,0.036794
3557.7440,0.036941
3559.6076,0.037090
3561.4713,0.036504
3563.3350,0.036491
3565.1986,0.037641
3567.0623,0.039078
3568.9260,0.038776
3570.7896,0.038093
3572.6533,0.036957
3574.5170,0.036702
3576.3807,0.036502
3578.2443,0.036980
3580.1080,0.037160
3581.9717,0.037248
3583.8353,0.036851
3585.6990,0.035890
3587.5627,0.036047
3589.4263,0.036993
3591.2900,0.036148
3593.1537,0.033999
3595.0173,0.034257
3596.8810,0.036502
3598.7447,0.036255
3600.6084,0.035428
3602.4720,0.035271
3604.3357,0.034569
3606.1994,0.033673
3608.0630,0.034361
3609.9267,0.035426
3611.7904,0.036122
3613.6540,0.035943
3615.5177,0.035660
3617.3814,0.034817
3619.2450,0.034630
3621.1087,0.034743
3622.9724,0.034071
3624.8360,0.033309
3626.6997,0.032868
3628.5634,0.033753
3630.4271,0.035499
3632.2907,0.033845
3634.1544,0.031965
3636.0181,0.031755
3637.8817,0.030896
3639.7454,0.029852
3641.6091,0.029103
3643.4727,0.028380
3645.3364,0.028581
3647.2001,0.029311
3649.0637,0.029569
3650.9274,0.029451
3652.7911,0.028698
3654.6547,0.027689
3656.5184,0.027479
3658.3821,0.028937
3660.2458,0.029253
3662.1094,0.028119
3663.9731,0.026991
3665.8368,0.026786
3667.7004,0.026623
3669.5641,0.026299
3671.4278,0.026825
3673.2914,0.026650
3675.1551,0.026194
3677.0188,0.025284
3678.8824,0.023291
3680.7461,0.021883
3682.6098,0.021644
3684.4735,0.020292
3686.3371,0.020217
3688.2008,0.020792
3690.0645,0.020219
3691.9281,0.019091
3693.7918,0.018261
3695.6555,0.017875
3697.5191,0.017157
3699.3828,0.017758
3701.2465,0.018160
3703.1101,0.017590
3704.9738,0.017524
3706.8375,0.017507
3708.7011,0.017451
3710.5648,0.017478
3712.4285,0.018045
3714.2922,0.017782
3716.1558,0.017552
3718.0195,0.017448
3719.8832,0.017252
3721.7468,0.016923
3723.6105,0.016718
3725.4742,0.016050
3727.3378,0.015067
3729.2015,0.014257
3731.0652,0.013807
3732.9288,0.014128
3734.7925,0.014021
3736.6562,0.013268
3738.5199,0.013496
3740.3835,0.013411
3742.2472,0.013575
3744.1109,0.014046
3745.9745,0.013479
3747.8382,0.013045
3749.7019,0.011794
3751.5655,0.012806
3753.4292,0.013382
3755.2929,0.013270
3757.1565,0.013164
3759.0202,0.013997
3760.8839,0.013952
3762.7475,0.013677
3764.6112,0.013785
3766.4749,0.013568
3768.3386,0.013539
3770.2022,0.012644
3772.0659,0.013336
3773.9296,0.013979
3775.7932,0.013389
3777.6569,0.012709
3779.5206,0.012436
3781.3842,0.013441
3783.2479,0.014082
3785.1116,0.013754
3786.9752,0.013583
3788.8389,0.013708
3790.7026,0.013772
3792.5662,0.013772
3794.4299,0.013513
3796.2936,0.013132
3798.1573,0.013667
3800.0209,0.014085
3801.8846,0.012829
3803.7483,0.014015
3805.6119,0.014169
3807.4756,0.013230
3809.3393,0.013900
3811.2029,0.013733
3813.0666,0.013982
3814.9303,0.014392
3816.7939,0.013724
3818.6576,0.014430
3820.5213,0.014913
3822.3850,0.014659
3824.2486,0.014691
3826.1123,0.014080
3827.9760,0.014211
3829.8396,0.014372
3831.7033,0.013663
3833.5670,0.013555
3835.4306,0.013741
3837.2943,0.013941
3839.1580,0.014425
3841.0216,0.014859
3842.8853,0.014817
3844.7490,0.014494
3846.6126,0.013979
3848.4763,0.013619
3850.3400,0.013667
3852.2037,0.014703
3854.0673,0.015576
3855.9310,0.014754
3857.7947,0.013293
3859.6583,0.012965
3861.5220,0.013967
3863.3857,0.014509
3865.2493,0.014658
3867.1130,0.014288
3868.9767,0.014333
3870.8403,0.014153
3872.7040,0.015417
3874.5677,0.014881
3876.4314,0.014724
3878.2950,0.014413
3880.1587,0.014457
3882.0224,0.014944
3883.8860,0.014931
3885.7497,0.014456
3887.6134,0.014413
3889.4770,0.014634
3891.3407,0.014757
3893.2044,0.014242
3895.0680,0.013739
3896.9317,0.014039
3898.7954,0.014587
3900.6590,0.015319
3902.5227,0.015656
3904.3864,0.014745
3906.2501,0.014116
3908.1137,0.013672
3909.9774,0.013560
3911.8411,0.013935
3913.7047,0.014157
3915.5684,0.014465
3917.4321,0.014468
3919.2957,0.014617
3921.1594,0.014548
3923.0231,0.014367
3924.8867,0.014399
3926.7504,0.014671
3928.6141,0.014738
3930.4777,0.014482
3932.3414,0.015137
3934.2051,0.015278
3936.0688,0.014775
3937.9324,0.014070
3939.7961,0.013904
3941.6598,0.014631
3943.5234,0.015241
3945.3871,0.015415
3947.2508,0.015052
3949.1144,0.014805
3950.9781,0.015001
3952.8418,0.014684
3954.7054,0.014912
3956.5691,0.014646
3958.4328,0.014133
3960.2965,0.014738
3962.1601,0.015154
3964.0238,0.014990
3965.8875,0.014620
3967.7511,0.014471
3969.6148,0.014807
3971.4785,0.014865
3973.3421,0.014687
3975.2058,0.014328
3977.0695,0.014329
3978.9331,0.014530
3980.7968,0.014659
3982.6605,0.014746
3984.5241,0.015098
3986.3878,0.015230
3988.2515,0.015519
3990.1152,0.015545
3991.9788,0.014789
3993.8425,0.014290
3995.7062,0.014908
3997.5698,0.015207
3999.4335,0.014380
4001.2972,0.013730
4003.1608,0.014904
4005.0245,0.015359
4006.8882,0.015270
4008.7518,0.014743
4010.6155,0.014192
4012.4792,0.014687
4014.3429,0.014680
4016.2065,0.014441
4018.0702,0.014950
4019.9339,0.015072
4021.7975,0.014943
4023.6612,0.014822
4025.5249,0.014973
4027.3885,0.014900
4029.2522,0.015402
4031.1159,0.015179
4032.9795,0.015250
4034.8432,0.015140
4036.7069,0.015193
4038.5705,0.015380
4040.4342,0.014793
4042.2979,0.014415
4044.1616,0.014651
4046.0252,0.014979
4047.8889,0.015051
4049.7526,0.014995
4051.6162,0.014591
4053.4799,0.014180
4055.3436,0.014982
4057.2072,0.015172
4059.0709,0.014886
4060.9346,0.014535
4062.7982,0.015114
4064.6619,0.015280
4066.5256,0.015417
4068.3892,0.015525
4070.2529,0.015763
4072.1166,0.015103
4073.9803,0.014962
4075.8439,0.014883
4077.7076,0.014258
4079.5713,0.014666
4081.4349,0.015062
4083.2986,0.015182
4085.1623,0.015776
4087.0259,0.015709
4088.8896,0.015513
4090.7533,0.014651
4092.6169,0.014758
4094.4806,0.015585
4096.3443,0.015676
4098.2080,0.015305
4100.0716,0.015335
