Wavenumber,Intensity
600.1014,0.009159
601.9651,0.015535
603.8287,0.010508
605.6924,0.006454
607.5561,0.006151
609.4197,0.002971
611.2834,-0.010367
613.1471,-0.013946
615.0107,-0.003742
616.8744,-0.001289
618.7381,-0.002788
620.6017,-0.000009
622.4654,-0.002553
624.3291,-0.007649
626.1928,-0.004134
628.0564,0.000745
629.9201,0.000185
631.7838,0.000251
633.6474,0.002451
635.5111,0.003999
637.3748,0.000498
639.2384,-0.001593
641.1021,-0.000500
642.9658,0.000198
644.8294,-0.000187
646.6931,0.000829
648.5568,0.001737
650.4205,0.000694
652.2841,0.000107
654.1478,0.001210
656.0115,0.002216
657.8751,0.002412
659.7388,0.002635
661.6025,0.002401
663.4661,0.001797
665.3298,0.001198
667.1935,0.003453
669.0571,0.004968
670.9208,0.002717
672.7845,0.001416
674.6481,0.001618
676.5118,0.002200
678.3755,0.002323
680.2392,0.002838
682.1028,0.002512
683.9665,0.002338
685.8302,0.002864
687.6938,0.003007
689.5575,0.002991
691.4212,0.003252
693.2848,0.003027
695.1485,0.002278
697.0122,0.001665
698.8758,0.001967
700.7395,0.001496
702.6032,0.001265
704.4669,0.001365
706.3305,0.001708
708.1942,0.002007
710.0579,0.001753
711.9215,0.001428
713.7852,0.001101
715.6489,0.000860
717.5125,0.001559
719.3762,0.001795
721.2399,0.001702
723.1035,0.001857
724.9672,0.002085
726.8309,0.002144
728.6945,0.002358
730.5582,0.002537
732.4219,0.002471
734.2856,0.002171
736.1492,0.001642
738.0129,0.001865
739.8766,0.002348
741.7402,0.002621
743.6039,0.002447
745.4676,0.001987
747.3312,0.002044
749.1949,0.002348
751.0586,0.002421
752.9222,0.002225
754.7859,0.002444
756.6496,0.002698
758.5132,0.002532
760.3769,0.002427
762.2406,0.002519
764.1043,0.002577
765.9679,0.002397
767.8316,0.002502
769.6953,0.002747
771.5589,0.002506
773.4226,0.002228
775.2863,0.002072
777.1499,0.001953
779.0136,0.001909
780.8773,0.001826
782.7409,0.001774
784.6046,0.001617
786.4683,0.001527
788.3320,0.001704
790.1956,0.002065
792.0593,0.002193
793.9230,0.002078
795.7866,0.001821
797.6503,0.001524
799.5140,0.001439
801.3776,0.001502
803.2413,0.001427
805.1050,0.001355
806.9686,0.001264
808.8323,0.001053
810.6960,0.000683
812.5596,0.000471
814.4233,0.000452
816.2870,0.000419
818.1507,0.000520
820.0143,0.000479
821.8780,0.000360
823.7417,0.000382
825.6053,0.000444
827.4690,0.000568
829.3327,0.000653
831.1963,0.000681
833.0600,0.000855
834.9237,0.000811
836.7873,0.000588
838.6510,0.000604
840.5147,0.000828
842.3784,0.000919
844.2420,0.000888
846.1057,0.000833
847.9694,0.000867
849.8330,0.000921
851.6967,0.001063
853.5604,0.001170
855.4240,0.001089
857.2877,0.001168
859.1514,0.001348
861.0150,0.001419
862.8787,0.001445
864.7424,0.001369
866.6060,0.001280
868.4697,0.001234
870.3334,0.001264
872.1971,0.001303
874.0607,0.001358
875.9244,0.001462
877.7881,0.001559
879.6517,0.001553
881.5154,0.001381
883.3791,0.001489
885.2427,0.001610
887.1064,0.001695
888.9701,0.001750
890.8337,0.001793
892.6974,0.001788
894.5611,0.001840
896.4247,0.001935
898.2884,0.001955
900.1521,0.001912
902.0158,0.001840
903.8794,0.001851
905.7431,0.001859
907.6068,0.001750
909.4704,0.001825
911.3341,0.002023
913.1978,0.002000
915.0614,0.001965
916.9251,0.002047
918.7888,0.002122
920.6524,0.002102
922.5161,0.002054
924.3798,0.001999
926.2435,0.001963
928.1071,0.001963
929.9708,0.001910
931.8345,0.001905
933.6981,0.001948
935.5618,0.001997
937.4255,0.001956
939.2891,0.001939
941.1528,0.001913
943.0165,0.001899
944.8801,0.002012
946.7438,0.002012
948.6075,0.001924
950.4711,0.001969
952.3348,0.002114
954.1985,0.002104
956.0622,0.002034
957.9258,0.001943
959.7895,0.001883
961.6532,0.001931
963.5168,0.001860
965.3805,0.001750
967.2442,0.001820
969.1078,0.001932
970.9715,0.001995
972.8352,0.001970
974.6988,0.001945
976.5625,0.001906
978.4262,0.002018
980.2899,0.002096
982.1535,0.002056
984.0172,0.002095
985.8809,0.002023
987.7445,0.001971
989.6082,0.001996
991.4719,0.002019
993.3355,0.002051
995.1992,0.002023
997.0629,0.001969
998.9265,0.002014
1000.7902,0.002102
1002.6539,0.002045
1004.5175,0.001943
1006.3812,0.001918
1008.2449,0.001836
1010.1086,0.001795
1011.9722,0.001834
1013.8359,0.001897
1015.6996,0.001960
1017.5632,0.001888
1019.4269,0.001818
1021.2906,0.001872
1023.1542,0.001872
1025.0179,0.001734
1026.8816,0.001793
1028.7452,0.001875
1030.6089,0.001856
1032.4726,0.001854
1034.3362,0.001760
1036.1999,0.001693
1038.0636,0.001749
1039.9273,0.001759
1041.7909,0.001645
1043.6546,0.001570
1045.5183,0.001574
1047.3819,0.001503
1049.2456,0.001430
1051.1093,0.001379
1052.9729,0.001308
1054.8366,0.001286
1056.7003,0.001280
1058.5639,0.001197
1060.4276,0.001093
1062.2913,0.001033
1064.1550,0.000980
1066.0186,0.000896
1067.8823,0.000836
1069.7460,0.000751
1071.6096,0.000622
1073.4733,0.000598
1075.3370,0.000617
1077.2006,0.000555
1079.0643,0.000514
1080.9280,0.000559
1082.7916,0.000616
1084.6553,0.000592
1086.5190,0.000513
1088.3826,0.000473
1090.2463,0.000513
1092.1100,0.000515
1093.9737,0.000533
1095.8373,0.000566
1097.7010,0.000533
1099.5647,0.000528
1101.4283,0.000529
1103.2920,0.000566
1105.1557,0.000613
1107.0193,0.000537
1108.8830,0.000469
1110.7467,0.000594
1112.6103,0.000677
1114.4740,0.000672
1116.3377,0.000691
1118.2014,0.000682
1120.0650,0.000695
1121.9287,0.000756
1123.7924,0.000836
1125.6560,0.000840
1127.5197,0.000820
1129.3834,0.000839
1131.2470,0.000827
1133.1107,0.000820
1134.9744,0.000908
1136.8380,0.001008
1138.7017,0.001012
1140.5654,0.001121
1142.4290,0.001230
1144.2927,0.001186
1146.1564,0.001107
1148.0201,0.001126
1149.8837,0.001171
1151.7474,0.001193
1153.6111,0.001062
1155.4747,0.000930
1157.3384,0.000935
1159.2021,0.001047
1161.0657,0.001083
1162.9294,0.001009
1164.7931,0.001021
1166.6567,0.001083
1168.5204,0.001117
1170.3841,0.001078
1172.2477,0.000985
1174.1114,0.000932
1175.9751,0.000822
1177.8388,0.000622
1179.7024,0.000495
1181.5661,0.000452
1183.4298,0.000412
1185.2934,0.000379
1187.1571,0.000325
1189.0208,0.000212
1190.8844,0.000178
1192.7481,0.000165
1194.6118,0.000145
1196.4754,0.000165
1198.3391,0.000194
1200.2028,0.000107
1202.0665,-0.000021
1203.9301,-0.000026
1205.7938,0.000066
1207.6575,0.000126
1209.5211,0.000107
1211.3848,0.000082
1213.2485,0.000066
1215.1121,0.000019
1216.9758,0.000006
1218.8395,-0.000003
1220.7031,-0.000069
1222.5668,-0.000035
1224.4305,-0.000013
1226.2941,-0.000048
1228.1578,-0.000034
1230.0215,-0.000009
1231.8852,-0.000026
1233.7488,-0.000049
1235.6125,-0.000079
1237.4762,-0.000087
1239.3398,-0.000092
1241.2035,-0.000004
1243.0672,0.000082
1244.9308,-0.000031
1246.7945,-0.000170
1248.6582,-0.000157
1250.5218,-0.000084
1252.3855,-0.000011
1254.2492,-0.000043
1256.1129,-0.000088
1257.9765,-0.000098
1259.8402,-0.000063
1261.7039,-0.000128
1263.5675,-0.000170
1265.4312,-0.000116
1267.2949,-0.000117
1269.1585,-0.000099
1271.0222,-0.000059
1272.8859,-0.000088
1274.7495,-0.000080
1276.6132,-0.000058
1278.4769,-0.000116
1280.3405,-0.000173
1282.2042,-0.000075
1284.0679,-0.000059
1285.9316,-0.000144
1287.7952,-0.000121
1289.6589,-0.000107
1291.5226,-0.000116
1293.3862,-0.000114
1295.2499,-0.000113
1297.1136,-0.000063
1298.9772,-0.000038
1300.8409,-0.000090
1302.7046,-0.000126
1304.5682,-0.000197
1306.4319,-0.000212
1308.2956,-0.000166
1310.1592,-0.000205
1312.0229,-0.000145
1313.8866,-0.000050
1315.7503,-0.000031
1317.6139,-0.000014
1319.4776,-0.000068
1321.3413,-0.000172
1323.2049,-0.000196
1325.0686,-0.000175
1326.9323,-0.000149
1328.7959,-0.000167
1330.6596,-0.000191
1332.5233,-0.000153
1334.3869,-0.000206
1336.2506,-0.000258
1338.1143,-0.000116
1339.9780,0.000175
1341.8416,0.000134
1343.7053,-0.000033
1345.5690,-0.000090
1347.4326,-0.000088
1349.2963,-0.000136
1351.1600,-0.000136
1353.0236,-0.000115
1354.8873,-0.000098
1356.7510,-0.000067
1358.6146,-0.000122
1360.4783,-0.000207
1362.3420,-0.000037
1364.2056,0.000133
1366.0693,-0.000009
1367.9330,-0.000074
1369.7967,-0.000047
1371.6603,-0.000175
1373.5240,-0.000157
1375.3877,-0.000060
1377.2513,-0.000116
1379.1150,-0.000102
1380.9787,-0.000096
1382.8423,-0.000139
1384.7060,-0.000362
1386.5697,-0.000138
1388.4333,0.000141
1390.2970,-0.000049
1392.1607,-0.000336
1394.0244,-0.000173
1395.8880,0.000032
1397.7517,0.000050
1399.6154,0.000119
1401.4790,-0.000127
1403.3427,-0.000105
1405.2064,-0.000013
1407.0700,-0.000015
1408.9337,-0.000018
1410.7974,0.000011
1412.6610,-0.000046
1414.5247,-0.000114
1416.3884,-0.000209
1418.2520,-0.000040
1420.1157,0.000206
1421.9794,0.000077
1423.8431,0.000056
1425.7067,-0.000053
1427.5704,-0.000078
1429.4341,-0.000011
1431.2977,0.000043
1433.1614,-0.000102
1435.0251,-0.000221
1436.8887,0.000330
1438.7524,0.000323
1440.6161,0.000085
1442.4797,-0.000030
1444.3434,-0.000099
1446.2071,-0.000251
1448.0707,-0.000164
1449.9344,-0.000102
1451.7981,0.000022
1453.6618,-0.000201
1455.5254,-0.000483
1457.3891,0.000185
1459.2528,0.000666
1461.1164,0.000220
1462.9801,-0.000297
1464.8438,-0.000069
1466.7074,0.000075
1468.5711,-0.000170
1470.4348,-0.000419
1472.2984,0.000112
1474.1621,0.000183
1476.0258,0.000247
1477.8895,0.000258
1479.7531,0.000061
1481.6168,-0.000019
1483.4805,-0.000115
1485.3441,-0.000182
1487.2078,-0.000166
1489.0715,-0.000075
1490.9351,0.000282
1492.7988,0.000120
1494.6625,-0.000147
1496.5261,-0.000130
1498.3898,0.000062
1500.2535,0.000179
1502.1171,-0.000036
1503.9808,-0.000572
1505.8445,-0.000413
1507.7082,0.000890
1509.5718,0.000865
1511.4355,0.000398
1513.2992,-0.000032
1515.1628,-0.000175
1517.0265,0.000099
1518.8902,-0.000126
1520.7538,0.000268
1522.6175,0.000616
1524.4812,0.000216
1526.3448,0.000134
1528.2085,0.000294
1530.0722,-0.000008
1531.9359,-0.000501
1533.7995,-0.000027
1535.6632,-0.000011
1537.5269,-0.000575
1539.3905,-0.000684
1541.2542,0.000222
1543.1179,0.000528
1544.9815,0.000453
1546.8452,-0.000019
1548.7089,-0.000101
1550.5725,0.000028
1552.4362,-0.000195
1554.2999,-0.000118
1556.1635,-0.000595
1558.0272,-0.000695
1559.8909,0.000668
1561.7546,0.000597
1563.6182,-0.000021
1565.4819,-0.000232
1567.3456,-0.000351
1569.2092,-0.000149
1571.0729,0.000062
1572.9366,-0.000235
1574.8002,-0.000459
1576.6639,0.000100
1578.5276,0.000216
1580.3912,-0.000084
1582.2549,-0.000293
1584.1186,-0.000236
1585.9822,-0.000280
1587.8459,-0.000287
1589.7096,-0.000254
1591.5733,-0.000211
1593.4369,-0.000105
1595.3006,-0.000135
1597.1643,-0.000129
1599.0279,-0.000145
1600.8916,-0.000244
1602.7553,-0.000341
1604.6189,-0.000312
1606.4826,-0.000189
1608.3463,-0.000201
1610.2099,-0.000366
1612.0736,-0.000286
1613.9373,-0.000466
1615.8010,-0.000458
1617.6646,-0.000094
1619.5283,-0.000137
1621.3920,-0.000442
1623.2556,-0.000434
1625.1193,-0.000369
1626.9830,-0.000271
1628.8466,-0.000116
1630.7103,-0.000018
1632.5740,-0.000341
1634.4376,-0.000567
1636.3013,0.000048
1638.1650,0.000214
1640.0286,0.000019
1641.8923,-0.000174
1643.7560,-0.000336
1645.6197,-0.000419
1647.4833,0.000038
1649.3470,-0.000150
1651.2107,-0.000792
1653.0743,-0.000149
1654.9380,0.000500
1656.8017,-0.000030
1658.6653,-0.000481
1660.5290,-0.000563
1662.3927,-0.000201
1664.2563,0.000003
1666.1200,-0.000273
1667.9837,-0.000405
1669.8474,0.000061
1671.7110,-0.000016
1673.5747,-0.000479
1675.4384,-0.000350
1677.3020,-0.000209
1679.1657,-0.000069
1681.0294,-0.000227
1682.8930,-0.000397
1684.7567,0.000310
1686.6204,0.000272
1688.4840,0.000028
1690.3477,-0.000113
1692.2114,-0.000306
1694.0750,-0.000702
1695.9387,-0.000440
1697.8024,-0.000734
1699.6661,-0.000547
1701.5297,-0.000033
1703.3934,0.000179
1705.2571,0.000159
1707.1207,-0.000008
1708.9844,-0.000195
1710.8481,-0.000352
1712.7117,-0.000454
1714.5754,-0.000383
1716.4391,-0.000132
1718.3027,0.000394
1720.1664,0.000122
1722.0301,-0.000115
1723.8937,-0.000148
1725.7574,-0.000137
1727.6211,-0.000277
1729.4848,-0.000259
1731.3484,-0.000472
1733.2121,-0.000187
1735.0758,0.000491
1736.9394,0.000058
1738.8031,-0.000313
1740.6668,-0.000306
1742.5304,0.000102
1744.3941,0.000072
1746.2578,-0.000215
1748.1214,-0.000417
1749.9851,-0.000451
1751.8488,-0.000047
1753.7125,0.000040
1755.5761,-0.000103
1757.4398,-0.000330
1759.3035,-0.000366
1761.1671,-0.000054
1763.0308,0.000111
1764.8945,-0.000162
1766.7581,-0.000429
1768.6218,-0.000424
1770.4855,-0.000318
1772.3491,0.000076
1774.2128,0.000084
1776.0765,-0.000070
1777.9401,-0.000405
1779.8038,-0.000360
1781.6675,-0.000209
1783.5312,-0.000052
1785.3948,0.000037
1787.2585,-0.000190
1789.1222,-0.000406
1790.9858,-0.000353
1792.8495,-0.000017
1794.7132,0.000024
1796.5768,-0.000181
1798.4405,-0.000293
1800.3042,-0.000229
1802.1678,-0.000037
1804.0315,-0.000003
1805.8952,-0.000291
1807.7589,-0.000433
1809.6225,-0.000325
1811.4862,-0.000278
1813.3499,-0.000345
1815.2135,-0.000356
1817.0772,-0.000271
1818.9409,-0.000251
1820.8045,-0.000363
1822.6682,-0.000385
1824.5319,-0.000177
1826.3955,-0.000115
1828.2592,-0.000302
1830.1229,-0.000255
1831.9865,-0.000358
1833.8502,-0.000505
1835.7139,-0.000609
1837.5776,-0.000406
1839.4412,-0.000220
1841.3049,-0.000403
1843.1686,-0.000535
1845.0322,-0.000156
1846.8959,0.000136
1848.7596,0.000140
1850.6232,-0.000132
1852.4869,-0.000464
1854.3506,-0.000685
1856.2142,-0.000477
1858.0779,-0.000407
1859.9416,-0.000399
1861.8052,-0.000276
1863.6689,-0.000147
1865.5326,-0.000185
1867.3963,-0.000237
1869.2599,0.000002
1871.1236,0.000022
1872.9873,-0.000466
1874.8509,-0.000437
1876.7146,-0.000290
1878.5783,-0.000540
1880.4419,-0.000589
1882.3056,-0.000190
1884.1693,-0.000041
1886.0329,-0.000261
1887.8966,-0.000479
1889.7603,-0.000336
1891.6240,-0.000302
1893.4876,-0.000396
1895.3513,-0.000524
1897.2150,-0.000489
1899.0786,-0.000396
1900.9423,-0.000365
1902.8060,-0.000306
1904.6696,-0.000327
1906.5333,-0.000704
1908.3970,-0.000809
1910.2606,-0.000584
1912.1243,-0.000580
1913.9880,-0.000671
1915.8516,-0.000687
1917.7153,-0.000384
1919.5790,-0.000092
1921.4427,-0.000364
1923.3063,-0.000842
1925.1700,-0.000883
1927.0337,-0.000532
1928.8973,-0.000396
1930.7610,-0.000246
1932.6247,-0.000376
1934.4883,-0.000643
1936.3520,-0.000571
1938.2157,-0.000309
1940.0793,-0.000562
1941.9430,-0.000773
1943.8067,-0.000622
1945.6704,-0.000316
1947.5340,-0.000363
1949.3977,-0.000348
1951.2614,-0.000380
1953.1250,-0.000699
1954.9887,-0.000929
1956.8524,-0.000916
1958.7160,-0.001235
1960.5797,-0.001578
1962.4434,-0.001043
1964.3070,-0.000152
1966.1707,-0.000418
1968.0344,-0.001108
1969.8980,-0.001362
1971.7617,-0.001419
1973.6254,-0.000964
1975.4891,-0.000714
1977.3527,-0.001086
1979.2164,-0.001691
1981.0801,-0.001365
1982.9437,-0.000633
1984.8074,-0.000896
1986.6711,-0.000794
1988.5347,-0.000786
1990.3984,-0.000998
1992.2621,-0.000728
1994.1257,-0.000480
1995.9894,-0.000805
1997.8531,-0.000786
1999.7167,-0.000529
2001.5804,-0.000677
2003.4441,-0.000740
2005.3078,-0.000881
2007.1714,-0.000644
2009.0351,-0.000383
2010.8988,-0.001119
2012.7624,-0.001783
2014.6261,-0.002083
2016.4898,-0.001555
2018.3534,-0.000998
2020.2171,-0.000954
2022.0808,-0.000356
2023.9444,0.000081
2025.8081,-0.000487
2027.6718,-0.001240
2029.5355,-0.001178
2031.3991,-0.000288
2033.2628,-0.000182
2035.1265,-0.000978
2036.9901,-0.000800
2038.8538,-0.000145
2040.7175,-0.000629
2042.5811,-0.001160
2044.4448,-0.000990
2046.3085,-0.000460
2048.1721,-0.000440
2050.0358,-0.000529
2051.8995,-0.000323
2053.7631,-0.000497
2055.6268,-0.001078
2057.4905,-0.001148
2059.3542,-0.000696
2061.2178,-0.000410
2063.0815,-0.000508
2064.9452,-0.000750
2066.8088,-0.000664
2068.6725,-0.000045
2070.5362,0.000062
2072.3998,-0.000653
2074.2635,-0.000964
2076.1272,-0.001074
2077.9908,-0.001192
2079.8545,-0.000393
2081.7182,0.000404
2083.5819,0.000122
2085.4455,-0.000743
2087.3092,-0.000931
2089.1729,-0.000620
2091.0365,-0.000366
2092.9002,-0.000214
2094.7639,-0.000323
2096.6275,-0.000642
2098.4912,-0.000690
2100.3549,-0.000932
2102.2185,-0.001403
2104.0822,-0.001006
2105.9459,-0.000288
2107.8095,-0.000611
2109.6732,-0.001015
2111.5369,-0.000869
2113.4006,-0.000640
2115.2642,-0.000480
2117.1279,-0.000353
2118.9916,-0.000609
2120.8552,-0.001233
2122.7189,-0.001123
2124.5826,-0.000575
2126.4462,-0.000524
2128.3099,-0.000432
2130.1736,-0.000487
2132.0372,-0.000930
2133.9009,-0.001245
2135.7646,-0.001018
2137.6282,-0.000625
2139.4919,-0.000664
2141.3556,-0.000996
2143.2193,-0.001202
2145.0829,-0.001046
2146.9466,-0.001150
2148.8103,-0.001359
2150.6739,-0.000918
2152.5376,-0.001042
2154.4013,-0.001159
2156.2649,-0.000148
2158.1286,0.000247
2159.9923,-0.000425
2161.8559,-0.000597
2163.7196,-0.000491
2165.5833,-0.000255
2167.4470,-0.000564
2169.3106,-0.000962
2171.1743,-0.000925
2173.0380,-0.000692
2174.9016,-0.000743
2176.7653,-0.000997
2178.6290,-0.001254
2180.4926,-0.000964
2182.3563,-0.000507
2184.2200,-0.000776
2186.0836,-0.000985
2187.9473,-0.000465
2189.8110,0.000002
2191.6746,-0.000023
2193.5383,-0.000187
2195.4020,-0.000440
2197.2657,-0.000870
2199.1293,-0.000971
2200.9930,-0.000906
2202.8567,-0.000830
2204.7203,-0.000383
2206.5840,-0.000302
2208.4477,-0.000975
2210.3113,-0.001365
2212.1750,-0.001038
2214.0387,-0.000808
2215.9023,-0.000857
2217.7660,-0.001039
2219.6297,-0.001198
2221.4934,-0.001080
2223.3570,-0.001066
2225.2207,-0.000939
2227.0844,-0.000736
2228.9480,-0.000670
2230.8117,-0.000519
2232.6754,-0.000553
2234.5390,-0.000938
2236.4027,-0.001109
2238.2664,-0.000923
2240.1300,-0.000960
2241.9937,-0.000953
2243.8574,-0.000457
2245.7210,-0.000576
2247.5847,-0.000851
2249.4484,-0.000434
2251.3121,-0.000457
2253.1757,-0.000729
2255.0394,-0.000485
2256.9031,-0.000389
2258.7667,-0.000301
2260.6304,-0.000153
2262.4941,-0.000324
2264.3577,-0.000481
2266.2214,-0.000638
2268.0851,-0.000694
2269.9487,-0.000509
2271.8124,-0.000481
2273.6761,-0.000501
2275.5397,-0.000649
2277.4034,-0.000482
2279.2671,-0.000282
2281.1308,-0.000377
2282.9944,-0.000351
2284.8581,-0.000362
2286.7218,-0.000346
2288.5854,-0.000411
2290.4491,-0.000546
2292.3128,-0.000219
2294.1764,0.000136
2296.0401,0.000116
2297.9038,0.000207
2299.7674,0.000239
2301.6311,0.000319
2303.4948,0.000784
2305.3585,0.000904
2307.2221,0.000829
2309.0858,0.000856
2310.9495,0.000836
2312.8131,0.001062
2314.6768,0.001565
2316.5405,0.001987
2318.4041,0.002100
2320.2678,0.002190
2322.1315,0.002824
2323.9951,0.003483
2325.8588,0.003352
2327.7225,0.002932
2329.5861,0.003091
2331.4498,0.003557
2333.3135,0.003716
2335.1772,0.003600
2337.0408,0.003307
2338.9045,0.003277
2340.7682,0.003321
2342.6318,0.003670
2344.4955,0.003965
2346.3592,0.003704
2348.2228,0.002875
2350.0865,0.002331
2351.9502,0.002760
2353.8138,0.003194
2355.6775,0.003916
2357.5412,0.004925
2359.4049,0.005518
2361.2685,0.005786
2363.1322,0.005770
2364.9959,0.005799
2366.8595,0.005091
2368.7232,0.004008
2370.5869,0.003566
2372.4505,0.003141
2374.3142,0.002579
2376.1779,0.001993
2378.0415,0.001499
2379.9052,0.000905
2381.7689,0.000146
2383.6325,-0.000366
2385.4962,-0.000302
2387.3599,-0.000045
2389.2236,-0.000285
2391.0872,-0.000699
2392.9509,-0.000713
2394.8146,-0.000708
2396.6782,-0.000665
2398.5419,-0.000400
2400.4056,-0.000568
2402.2692,-0.000885
2404.1329,-0.000858
2405.9966,-0.000901
2407.8602,-0.000920
2409.7239,-0.000928
2411.5876,-0.000990
2413.4512,-0.001041
2415.3149,-0.000807
2417.1786,-0.000530
2419.0423,-0.000498
2420.9059,-0.000499
2422.7696,-0.000584
2424.6333,-0.000846
2426.4969,-0.001041
2428.3606,-0.001047
2430.2243,-0.000730
2432.0879,-0.000607
2433.9516,-0.000802
2435.8153,-0.000929
2437.6789,-0.001112
2439.5426,-0.001228
2441.4063,-0.001025
2443.2700,-0.000853
2445.1336,-0.000601
2446.9973,-0.000635
2448.8610,-0.000982
2450.7246,-0.000967
2452.5883,-0.000584
2454.4520,-0.000538
2456.3156,-0.000814
2458.1793,-0.000961
2460.0430,-0.000833
2461.9066,-0.000879
2463.7703,-0.001107
2465.6340,-0.001048
2467.4976,-0.000732
2469.3613,-0.000695
2471.2250,-0.000537
2473.0887,-0.000443
2474.9523,-0.000698
2476.8160,-0.000850
2478.6797,-0.000742
2480.5433,-0.000889
2482.4070,-0.001253
2484.2707,-0.001119
2486.1343,-0.000724
2487.9980,-0.000610
2489.8617,-0.000596
2491.7253,-0.000763
2493.5890,-0.000831
2495.4527,-0.000720
2497.3164,-0.000900
2499.1800,-0.001005
2501.0437,-0.000912
2502.9074,-0.000819
2504.7710,-0.000743
2506.6347,-0.000733
2508.4984,-0.000774
2510.3620,-0.000492
2512.2257,-0.000124
2514.0894,-0.000428
2515.9530,-0.000919
2517.8167,-0.001143
2519.6804,-0.000981
2521.5440,-0.000756
2523.4077,-0.000934
2525.2714,-0.000773
2527.1351,-0.000458
2528.9987,-0.000644
2530.8624,-0.000734
2532.7261,-0.000944
2534.5897,-0.001120
2536.4534,-0.000876
2538.3171,-0.000706
2540.1807,-0.000757
2542.0444,-0.000961
2543.9081,-0.001166
2545.7717,-0.000763
2547.6354,-0.000445
2549.4991,-0.000904
2551.3627,-0.001188
2553.2264,-0.000895
2555.0901,-0.000625
2556.9538,-0.000544
2558.8174,-0.000453
2560.6811,-0.000351
2562.5448,-0.000443
2564.4084,-0.000746
2566.2721,-0.000784
2568.1358,-0.001102
2569.9994,-0.001384
2571.8631,-0.000981
2573.7268,-0.000821
2575.5904,-0.001106
2577.4541,-0.001160
2579.3178,-0.000922
2581.1815,-0.000848
2583.0451,-0.000788
2584.9088,-0.000717
2586.7725,-0.000793
2588.6361,-0.000785
2590.4998,-0.000639
2592.3635,-0.000700
2594.2271,-0.000815
2596.0908,-0.001072
2597.9545,-0.001078
2599.8181,-0.000830
2601.6818,-0.000841
2603.5455,-0.001086
2605.4091,-0.001145
2607.2728,-0.000918
2609.1365,-0.000819
2611.0002,-0.000728
2612.8638,-0.000730
2614.7275,-0.000754
2616.5912,-0.000687
2618.4548,-0.000786
2620.3185,-0.000936
2622.1822,-0.000903
2624.0458,-0.000957
2625.9095,-0.000808
2627.7732,-0.000655
2629.6368,-0.000686
2631.5005,-0.000651
2633.3642,-0.000929
2635.2279,-0.001048
2637.0915,-0.000839
2638.9552,-0.000888
2640.8189,-0.000825
2642.6825,-0.000701
2644.5462,-0.000759
2646.4099,-0.000861
2648.2735,-0.000880
2650.1372,-0.000743
2652.0009,-0.000746
2653.8645,-0.000821
2655.7282,-0.000762
2657.5919,-0.000723
2659.4555,-0.000844
2661.3192,-0.001055
2663.1829,-0.001024
2665.0466,-0.000839
2666.9102,-0.000723
2668.7739,-0.000914
2670.6376,-0.001126
2672.5012,-0.000998
2674.3649,-0.000971
2676.2286,-0.001009
2678.0922,-0.000837
2679.9559,-0.000830
2681.8196,-0.001028
2683.6832,-0.001209
2685.5469,-0.001011
2687.4106,-0.000659
2689.2742,-0.000716
2691.1379,-0.000966
2693.0016,-0.001008
2694.8653,-0.000823
2696.7289,-0.000721
2698.5926,-0.000767
2700.4563,-0.000813
2702.3199,-0.001034
2704.1836,-0.000971
2706.0473,-0.000619
2707.9109,-0.000594
2709.7746,-0.000873
2711.6383,-0.001044
2713.5019,-0.000916
2715.3656,-0.000850
2717.2293,-0.000929
2719.0930,-0.000881
2720.9566,-0.000977
2722.8203,-0.001063
2724.6840,-0.000999
2726.5476,-0.000995
2728.4113,-0.001034
2730.2750,-0.001187
2732.1386,-0.001191
2734.0023,-0.001006
2735.8660,-0.000918
2737.7296,-0.000852
2739.5933,-0.000925
2741.4570,-0.001146
2743.3206,-0.001232
2745.1843,-0.001144
2747.0480,-0.000899
2748.9117,-0.000771
2750.7753,-0.000748
2752.6390,-0.000921
2754.5027,-0.001123
2756.3663,-0.001248
2758.2300,-0.001120
2760.0937,-0.000883
2761.9573,-0.000850
2763.8210,-0.001009
2765.6847,-0.001140
2767.5483,-0.001064
2769.4120,-0.001024
2771.2757,-0.001448
2773.1394,-0.001305
2775.0030,-0.000762
2776.8667,-0.000767
2778.7304,-0.000895
2780.5940,-0.001024
2782.4577,-0.001120
2784.3214,-0.000957
2786.1850,-0.000917
2788.0487,-0.001002
2789.9124,-0.000974
2791.7760,-0.000799
2793.6397,-0.000768
2795.5034,-0.000748
2797.3670,-0.000825
2799.2307,-0.001043
2801.0944,-0.001128
2802.9581,-0.001204
2804.8217,-0.001182
2806.6854,-0.000941
2808.5491,-0.000841
2810.4127,-0.000904
2812.2764,-0.000909
2814.1401,-0.000927
2816.0037,-0.001158
2817.8674,-0.001273
2819.7311,-0.001065
2821.5947,-0.000876
2823.4584,-0.000863
2825.3221,-0.000845
2827.1857,-0.000751
2829.0494,-0.000802
2830.9131,-0.000959
2832.7768,-0.001137
2834.6404,-0.001190
2836.5041,-0.001075
2838.3678,-0.000867
2840.2314,-0.000947
2842.0951,-0.001184
2843.9588,-0.001186
2845.8224,-0.000787
2847.6861,-0.000809
2849.5498,-0.001139
2851.4134,-0.001094
2853.2771,-0.000898
2855.1408,-0.000640
2857.0045,-0.000671
2858.8681,-0.000985
2860.7318,-0.000988
2862.5955,-0.000994
2864.4591,-0.000965
2866.3228,-0.000925
2868.1865,-0.001282
2870.0501,-0.001489
2871.9138,-0.001200
2873.7775,-0.000949
2875.6411,-0.000716
2877.5048,-0.000686
2879.3685,-0.001007
2881.2321,-0.000947
2883.0958,-0.000821
2884.9595,-0.000970
2886.8232,-0.001195
2888.6868,-0.001165
2890.5505,-0.001083
2892.4142,-0.001412
2894.2778,-0.001383
2896.1415,-0.000811
2898.0052,-0.000567
2899.8688,-0.000687
2901.7325,-0.000820
2903.5962,-0.001097
2905.4598,-0.001356
2907.3235,-0.001289
2909.1872,-0.000699
2911.0509,-0.000780
2912.9145,-0.001338
2914.7782,-0.001545
2916.6419,-0.001457
2918.5055,-0.001257
2920.3692,-0.001257
2922.2329,-0.001233
2924.0965,-0.000911
2925.9602,-0.000721
2927.8239,-0.000722
2929.6875,-0.000740
2931.5512,-0.000735
2933.4149,-0.000469
2935.2785,-0.000477
2937.1422,-0.000758
2939.0059,-0.000742
2940.8696,-0.000750
2942.7332,-0.001214
2944.5969,-0.001301
2946.4606,-0.000841
2948.3242,-0.001013
2950.1879,-0.001044
2952.0516,-0.000982
2953.9152,-0.001325
2955.7789,-0.001384
2957.6426,-0.001356
2959.5062,-0.001227
2961.3699,-0.001267
2963.2336,-0.001429
2965.0972,-0.001197
2966.9609,-0.000918
2968.8246,-0.000894
2970.6883,-0.001107
2972.5519,-0.001222
2974.4156,-0.001061
2976.2793,-0.001076
2978.1429,-0.000944
2980.0066,-0.000749
2981.8703,-0.001069
2983.7339,-0.001150
2985.5976,-0.000794
2987.4613,-0.000831
2989.3249,-0.001531
2991.1886,-0.001858
2993.0523,-0.001201
2994.9160,-0.000927
2996.7796,-0.001433
2998.6433,-0.001732
3000.5070,-0.001138
3002.3706,-0.000811
3004.2343,-0.001217
3006.0980,-0.001412
3007.9616,-0.001199
3009.8253,-0.001255
3011.6890,-0.001492
3013.5526,-0.001473
3015.4163,-0.001210
3017.2800,-0.001433
3019.1436,-0.001417
3021.0073,-0.000993
3022.8710,-0.001026
3024.7347,-0.001153
3026.5983,-0.001137
3028.4620,-0.001236
3030.3257,-0.001303
3032.1893,-0.001305
3034.0530,-0.001488
3035.9167,-0.001465
3037.7803,-0.001443
3039.6440,-0.001434
3041.5077,-0.001230
3043.3713,-0.001116
3045.2350,-0.001191
3047.0987,-0.001368
3048.9624,-0.001090
3050.8260,-0.001011
3052.6897,-0.001506
3054.5534,-0.001576
3056.4170,-0.001440
3058.2807,-0.001715
3060.1444,-0.001527
3062.0080,-0.001105
3063.8717,-0.001079
3065.7354,-0.000977
3067.5990,-0.000751
3069.4627,-0.001310
3071.3264,-0.001576
3073.1900,-0.001339
3075.0537,-0.001411
3076.9174,-0.001356
3078.7811,-0.001200
3080.6447,-0.001240
3082.5084,-0.001192
3084.3721,-0.001431
3086.2357,-0.001551
3088.0994,-0.001669
3089.9631,-0.001824
3091.8267,-0.001889
3093.6904,-0.001638
3095.5541,-0.001229
3097.4177,-0.001066
3099.2814,-0.001261
3101.1451,-0.001730
3103.0087,-0.001530
3104.8724,-0.000889
3106.7361,-0.000623
3108.5998,-0.000713
3110.4634,-0.000787
3112.3271,-0.001013
3114.1908,-0.001183
3116.0544,-0.001056
3117.9181,-0.000922
3119.7818,-0.001238
3121.6454,-0.001887
3123.5091,-0.001889
3125.3728,-0.001476
3127.2364,-0.001373
3129.1001,-0.001570
3130.9638,-0.001487
3132.8275,-0.001129
3134.6911,-0.001222
3136.5548,-0.001119
3138.4185,-0.001297
3140.2821,-0.001597
3142.1458,-0.001954
3144.0095,-0.001724
3145.8731,-0.000995
3147.7368,-0.001156
3149.6005,-0.000934
3151.4641,-0.000864
3153.3278,-0.001514
3155.1915,-0.001400
3157.0551,-0.000912
3158.9188,-0.001025
3160.7825,-0.001433
3162.6462,-0.001662
3164.5098,-0.001716
3166.3735,-0.001546
3168.2372,-0.001480
3170.1008,-0.001584
3171.9645,-0.001646
3173.8282,-0.001498
3175.6918,-0.001330
3177.5555,-0.001285
3179.4192,-0.001079
3181.2828,-0.001233
3183.1465,-0.001044
3185.0102,-0.000878
3186.8739,-0.000893
3188.7375,-0.000876
3190.6012,-0.000888
3192.4649,-0.000476
3194.3285,-0.000428
3196.1922,-0.000848
3198.0559,-0.001256
3199.9195,-0.001572
3201.7832,-0.001892
3203.6469,-0.002336
3205.5105,-0.001863
3207.3742,-0.001410
3209.2379,-0.001303
3211.1015,-0.001507
3212.9652,-0.001863
3214.8289,-0.001649
3216.6926,-0.000905
3218.5562,-0.000955
3220.4199,-0.001658
3222.2836,-0.001511
3224.1472,-0.001253
3226.0109,-0.001696
3227.8746,-0.002352
3229.7382,-0.002455
3231.6019,-0.001273
3233.4656,-0.000540
3235.3292,-0.000496
3237.1929,-0.000366
3239.0566,-0.001384
3240.9202,-0.002470
3242.7839,-0.002418
3244.6476,-0.001876
3246.5113,-0.001186
3248.3749,-0.001221
3250.2386,-0.001010
3252.1023,-0.001060
3253.9659,-0.001541
3255.8296,-0.001804
3257.6933,-0.001388
3259.5569,-0.001222
3261.4206,-0.001623
3263.2843,-0.001895
3265.1479,-0.001059
3267.0116,-0.000593
3268.8753,-0.001762
3270.7390,-0.002864
3272.6026,-0.002451
3274.4663,-0.001460
3276.3300,-0.000826
3278.1936,-0.001321
3280.0573,-0.001742
3281.9210,-0.001718
3283.7846,-0.000840
3285.6483,-0.001082
3287.5120,-0.001837
3289.3756,-0.001733
3291.2393,-0.001907
3293.1030,-0.002381
3294.9666,-0.002031
3296.8303,-0.001533
3298.6940,-0.001663
3300.5577,-0.001887
3302.4213,-0.001690
3304.2850,-0.001046
3306.1487,-0.000665
3308.0123,-0.001838
3309.8760,-0.002569
3311.7397,-0.001631
3313.6033,-0.001211
3315.4670,-0.001349
3317.3307,-0.001667
3319.1943,-0.002227
3321.0580,-0.002017
3322.9217,-0.001569
3324.7854,-0.001837
3326.6490,-0.001664
3328.5127,-0.001714
3330.3764,-0.001215
3332.2400,-0.000999
3334.1037,-0.001748
3335.9674,-0.001705
3337.8310,-0.001311
3339.6947,-0.000828
3341.5584,-0.000365
3343.4220,-0.001044
3345.2857,-0.002292
3347.1494,-0.002501
3349.0130,-0.002468
3350.8767,-0.002346
3352.7404,-0.001336
3354.6041,-0.001356
3356.4677,-0.002196
3358.3314,-0.001720
3360.1951,-0.001042
3362.0587,-0.001533
3363.9224,-0.002088
3365.7861,-0.001996
3367.6497,-0.001056
3369.5134,-0.000421
3371.3771,-0.001291
3373.2407,-0.001914
3375.1044,-0.001569
3376.9681,-0.001201
3378.8317,-0.000925
3380.6954,-0.001216
3382.5591,-0.001853
3384.4228,-0.002041
3386.2864,-0.001974
3388.1501,-0.001757
3390.0138,-0.000793
3391.8774,-0.000162
3393.7411,-0.000605
3395.6048,-0.001800
3397.4684,-0.001754
3399.3321,-0.000855
3401.1958,-0.000918
3403.0594,-0.001597
3404.9231,-0.002229
3406.7868,-0.002050
3408.6505,-0.002267
3410.5141,-0.002650
3412.3778,-0.002487
3414.2415,-0.002036
3416.1051,-0.001842
3417.9688,-0.001642
3419.8325,-0.001315
3421.6961,-0.001184
3423.5598,-0.001869
3425.4235,-0.002014
3427.2871,-0.002071
3429.1508,-0.002279
3431.0145,-0.001642
3432.8781,-0.002226
3434.7418,-0.002438
3436.6055,-0.001556
3438.4692,-0.000151
3440.3328,0.000129
3442.1965,-0.000689
3444.0602,-0.002218
3445.9238,-0.002549
3447.7875,-0.001597
3449.6512,-0.001332
3451.5148,-0.002528
3453.3785,-0.002434
3455.2422,-0.000691
3457.1058,-0.000737
3458.9695,-0.001710
3460.8332,-0.001364
3462.6969,-0.000898
3464.5605,-0.001377
3466.4242,-0.001419
3468.2879,-0.001715
3470.1515,-0.002429
3472.0152,-0.002123
3473.8789,-0.001613
3475.7425,-0.002323
3477.6062,-0.003329
3479.4699,-0.003088
3481.3335,-0.001005
3483.1972,0.000540
3485.0609,-0.000791
3486.9245,-0.001568
3488.7882,-0.000811
3490.6519,-0.000387
3492.5156,-0.000853
3494.3792,-0.002717
3496.2429,-0.003669
3498.1066,-0.003060
3499.9702,-0.001921
3501.8339,-0.000436
3503.6976,-0.000848
3505.5612,-0.002242
3507.4249,-0.001483
3509.2886,-0.000386
3511.1522,-0.000224
3513.0159,-0.000723
3514.8796,-0.001938
3516.7432,-0.001411
3518.6069,-0.001370
3520.4706,-0.001648
3522.3343,-0.001397
3524.1979,-0.002286
3526.0616,-0.002062
3527.9253,-0.001907
3529.7889,-0.001941
3531.6526,-0.001285
3533.5163,-0.000913
3535.3799,-0.000898
3537.2436,-0.001269
3539.1073,-0.000875
3540.9709,-0.000164
3542.8346,-0.000536
3544.6983,-0.001426
3546.5620,-0.001598
3548.4256,-0.001194
3550.2893,-0.000998
3552.1530,-0.000663
3554.0166,-0.001087
3555.8803,-0.001629
3557.7440,-0.001838
3559.6076,-0.001665
3561.4713,-0.001225
3563.3350,-0.000781
3565.1986,-0.001034
3567.0623,-0.002411
3568.9260,-0.002739
3570.7896,-0.001165
3572.6533,-0.000585
3574.5170,-0.000810
3576.3807,-0.000956
3578.2443,-0.000893
3580.1080,-0.001061
3581.9717,-0.000854
3583.8353,-0.001567
3585.6990,-0.001803
3587.5627,-0.001357
3589.4263,-0.001398
3591.2900,-0.000866
3593.1537,-0.001442
3595.0173,-0.001694
3596.8810,-0.000858
3598.7447,-0.001542
3600.6084,-0.002538
3602.4720,-0.001858
3604.3357,-0.001055
3606.1994,-0.000446
3608.0630,-0.001028
3609.9267,-0.001258
3611.7904,-0.001105
3613.6540,-0.002289
3615.5177,-0.002337
3617.3814,-0.000578
3619.2450,-0.001085
3621.1087,-0.001608
3622.9724,-0.000939
3624.8360,-0.001502
3626.6997,-0.002158
3628.5634,-0.001711
3630.4271,-0.000693
3632.2907,-0.000485
3634.1544,-0.001346
3636.0181,-0.001214
3637.8817,-0.000801
3639.7454,-0.000608
3641.6091,-0.001346
3643.4727,-0.002342
3645.3364,-0.002192
3647.2001,-0.001483
3649.0637,-0.000616
3650.9274,-0.000603
3652.7911,-0.001420
3654.6547,-0.001140
3656.5184,-0.001024
3658.3821,-0.000977
3660.2458,-0.000712
3662.1094,-0.000998
3663.9731,-0.001265
3665.8368,-0.001211
3667.7004,-0.001135
3669.5641,-0.001619
3671.4278,-0.000820
3673.2914,-0.000255
3675.1551,-0.001021
3677.0188,-0.001153
3678.8824,-0.000610
3680.7461,-0.001913
3682.6098,-0.002503
3684.4735,-0.002182
3686.3371,-0.001776
3688.2008,-0.002167
3690.0645,-0.001422
3691.9281,0.000105
3693.7918,-0.000527
3695.6555,-0.001363
3697.5191,-0.001863
3699.3828,-0.001370
3701.2465,-0.001009
3703.1101,-0.001189
3704.9738,-0.000495
3706.8375,-0.000862
3708.7011,-0.002154
3710.5648,-0.002274
3712.4285,-0.001257
3714.2922,-0.000744
3716.1558,-0.001162
3718.0195,-0.001538
3719.8832,-0.001263
3721.7468,-0.001007
3723.6105,-0.000685
3725.4742,-0.000368
3727.3378,-0.000752
3729.2015,-0.000748
3731.0652,-0.001217
3732.9288,-0.001761
3734.7925,-0.000889
3736.6562,-0.000087
3738.5199,0.000495
3740.3835,-0.000277
3742.2472,-0.001282
3744.1109,-0.002345
3745.9745,-0.004456
3747.8382,-0.003236
3749.7019,-0.002236
3751.5655,-0.000450
3753.4292,0.000646
3755.2929,0.000198
3757.1565,-0.000903
3759.0202,-0.001228
3760.8839,-0.000752
3762.7475,-0.001609
3764.6112,-0.001976
3766.4749,-0.001579
3768.3386,-0.000954
3770.2022,-0.001032
3772.0659,-0.000999
3773.9296,-0.001045
3775.7932,-0.001545
3777.6569,-0.001816
3779.5206,-0.002137
3781.3842,-0.001919
3783.2479,-0.001552
3785.1116,-0.001591
3786.9752,-0.001406
3788.8389,-0.000936
3790.7026,-0.000936
3792.5662,-0.001463
3794.4299,-0.001825
3796.2936,-0.002065
3798.1573,-0.002087
3800.0209,-0.001671
3801.8846,-0.002177
3803.7483,-0.001948
3805.6119,-0.001502
3807.4756,-0.001218
3809.3393,-0.000357
3811.2029,-0.001239
3813.0666,-0.002288
3814.9303,-0.002537
3816.7939,-0.002339
3818.6576,-0.001357
3820.5213,-0.001095
3822.3850,-0.001523
3824.2486,-0.000947
3826.1123,-0.001449
3827.9760,-0.002255
3829.8396,-0.002137
3831.7033,-0.001632
3833.5670,-0.000927
3835.4306,-0.000574
3837.2943,-0.001527
3839.1580,-0.001540
3841.0216,-0.001377
3842.8853,-0.001861
3844.7490,-0.001346
3846.6126,-0.001014
3848.4763,-0.001702
3850.3400,-0.001689
3852.2037,-0.001721
3854.0673,-0.001698
3855.9310,-0.000277
3857.7947,-0.000189
3859.6583,-0.001018
3861.5220,-0.001747
3863.3857,-0.001844
3865.2493,-0.001413
3867.1130,-0.002123
3868.9767,-0.002026
3870.8403,-0.001305
3872.7040,0.000070
3874.5677,-0.000278
3876.4314,-0.000841
3878.2950,-0.001453
3880.1587,-0.002198
3882.0224,-0.001658
3883.8860,-0.001277
3885.7497,-0.001431
3887.6134,-0.001233
3889.4770,-0.001888
3891.3407,-0.002487
3893.2044,-0.001595
3895.0680,-0.000883
3896.9317,-0.001135
3898.7954,-0.001675
3900.6590,-0.002089
3902.5227,-0.001728
3904.3864,-0.001196
3906.2501,-0.001370
3908.1137,-0.001233
3909.9774,-0.001795
3911.8411,-0.002104
3913.7047,-0.001844
3915.5684,-0.001562
3917.4321,-0.001335
3919.2957,-0.001822
3921.1594,-0.002072
3923.0231,-0.001856
3924.8867,-0.002054
3926.7504,-0.001609
3928.6141,-0.001285
3930.4777,-0.001713
3932.3414,-0.001399
3934.2051,-0.001484
3936.0688,-0.002059
3937.9324,-0.001966
3939.7961,-0.001222
3941.6598,-0.000670
3943.5234,-0.000587
3945.3871,-0.001039
3947.2508,-0.001726
3949.1144,-0.001728
3950.9781,-0.001646
3952.8418,-0.001879
3954.7054,-0.002125
3956.5691,-0.001915
3958.4328,-0.001605
3960.2965,-0.002243
3962.1601,-0.002274
3964.0238,-0.001618
3965.8875,-0.001442
3967.7511,-0.001699
3969.6148,-0.001803
3971.4785,-0.001740
3973.3421,-0.002628
3975.2058,-0.002748
3977.0695,-0.001391
3978.9331,-0.001467
3980.7968,-0.001691
3982.6605,-0.001642
3984.5241,-0.001330
3986.3878,-0.001328
3988.2515,-0.001115
3990.1152,-0.001040
3991.9788,-0.002269
3993.8425,-0.002585
3995.7062,-0.001664
3997.5698,-0.001285
3999.4335,-0.001661
4001.2972,-0.001679
4003.1608,-0.001430
4005.0245,-0.001456
4006.8882,-0.001420
4008.7518,-0.002149
4010.6155,-0.002100
4012.4792,-0.001146
4014.3429,-0.000890
4016.2065,-0.001393
4018.0702,-0.001456
4019.9339,-0.001482
4021.7975,-0.001570
4023.6612,-0.001086
4025.5249,-0.001000
4027.3885,-0.001359
4029.2522,-0.001703
4031.1159,-0.002812
4032.9795,-0.002650
4034.8432,-0.002028
4036.7069,-0.002187
4038.5705,-0.002129
4040.4342,-0.001620
4042.2979,-0.001642
4044.1616,-0.001742
4046.0252,-0.001815
4047.8889,-0.001901
4049.7526,-0.001842
4051.6162,-0.001282
4053.4799,-0.000725
4055.3436,-0.000794
4057.2072,-0.001367
4059.0709,-0.001572
4060.9346,-0.001753
4062.7982,-0.001728
4064.6619,-0.001350
4066.5256,-0.001596
4068.3892,-0.001967
4070.2529,-0.001795
4072.1166,-0.001127
4073.9803,-0.000910
4075.8439,-0.001591
4077.7076,-0.002224
4079.5713,-0.002021
4081.4349,-0.001793
4083.2986,-0.002012
4085.1623,-0.002014
4087.0259,-0.001804
4088.8896,-0.001728
4090.7533,-0.001260
4092.6169,-0.001124
4094.4806,-0.002017
4096.3443,-0.002315
4098.2080,-0.001872
4100.0716,-0.001947
