Wavenumber,Intensity
600.1014,0.025975
601.9651,0.005848
603.8287,-0.005707
605.6924,0.001282
607.5561,0.004122
609.4197,-0.001724
611.2834,-0.002837
613.1471,0.003555
615.0107,0.008633
616.8744,0.008966
618.7381,0.004558
620.6017,0.002269
622.4654,0.005444
624.3291,0.004752
626.1928,0.003454
628.0564,0.000443
629.9201,0.003536
631.7838,0.006990
633.6474,0.005930
635.5111,0.004043
637.3748,0.004223
639.2384,0.004350
641.1021,0.002428
642.9658,0.000675
644.8294,0.001107
646.6931,0.002908
648.5568,0.003728
650.4205,0.004576
652.2841,0.004857
654.1478,0.004426
656.0115,0.004142
657.8751,0.002172
659.7388,0.002251
661.6025,0.003437
663.4661,0.001904
665.3298,0.001305
667.1935,0.006577
669.0571,0.008429
670.9208,0.004041
672.7845,0.002541
674.6481,0.003064
676.5118,0.004344
678.3755,0.004566
680.2392,0.004439
682.1028,0.003909
683.9665,0.003763
685.8302,0.003556
687.6938,0.003752
689.5575,0.004198
691.4212,0.003707
693.2848,0.002767
695.1485,0.002726
697.0122,0.002866
698.8758,0.002369
700.7395,0.001548
702.6032,0.001517
704.4669,0.002641
706.3305,0.002658
708.1942,0.001940
710.0579,0.001846
711.9215,0.001708
713.7852,0.001742
715.6489,0.001780
717.5125,0.001766
719.3762,0.001778
721.2399,0.001643
723.1035,0.001302
724.9672,0.001164
726.8309,0.001448
728.6945,0.001923
730.5582,0.001807
732.4219,0.001104
734.2856,0.001130
736.1492,0.001560
738.0129,0.001655
739.8766,0.001787
741.7402,0.001811
743.6039,0.001772
745.4676,0.001544
747.3312,0.001436
749.1949,0.001620
751.0586,0.001722
752.9222,0.001590
754.7859,0.001253
756.6496,0.001245
758.5132,0.001793
760.3769,0.002028
762.2406,0.002040
764.1043,0.002091
765.9679,0.001918
767.8316,0.001635
769.6953,0.001812
771.5589,0.002303
773.4226,0.002494
775.2863,0.002592
777.1499,0.002515
779.0136,0.002493
780.8773,0.002340
782.7409,0.002248
784.6046,0.002151
786.4683,0.002252
788.3320,0.002399
790.1956,0.002383
792.0593,0.002387
793.9230,0.002573
795.7866,0.002399
797.6503,0.002002
799.5140,0.002029
801.3776,0.002041
803.2413,0.002090
805.1050,0.001804
806.9686,0.001450
808.8323,0.001500
810.6960,0.001649
812.5596,0.001619
814.4233,0.001361
816.2870,0.001214
818.1507,0.001197
820.0143,0.001189
821.8780,0.001247
823.7417,0.001328
825.6053,0.001332
827.4690,0.001338
829.3327,0.001476
831.1963,0.001679
833.0600,0.001627
834.9237,0.001504
836.7873,0.001423
838.6510,0.001227
840.5147,0.001144
842.3784,0.001081
844.2420,0.001157
846.1057,0.001263
847.9694,0.001294
849.8330,0.001379
851.6967,0.001264
853.5604,0.001301
855.4240,0.001540
857.2877,0.001467
859.1514,0.001371
861.0150,0.001577
862.8787,0.001538
864.7424,0.001319
866.6060,0.001290
868.4697,0.001373
870.3334,0.001605
872.1971,0.001685
874.0607,0.001532
875.9244,0.001442
877.7881,0.001460
879.6517,0.001668
881.5154,0.001884
883.3791,0.001798
885.2427,0.001729
887.1064,0.001745
888.9701,0.001759
890.8337,0.001858
892.6974,0.001981
894.5611,0.001919
896.4247,0.001926
898.2884,0.002038
900.1521,0.002083
902.0158,0.002103
903.8794,0.002007
905.7431,0.002042
907.6068,0.002168
909.4704,0.002192
911.3341,0.002249
913.1978,0.002358
915.0614,0.002383
916.9251,0.002312
918.7888,0.002252
920.6524,0.002334
922.5161,0.002447
924.3798,0.002456
926.2435,0.002452
928.1071,0.002513
929.9708,0.002596
931.8345,0.002695
933.6981,0.002821
935.5618,0.002847
937.4255,0.002912
939.2891,0.002966
941.1528,0.002849
943.0165,0.002931
944.8801,0.003146
946.7438,0.003211
948.6075,0.003095
950.4711,0.002955
952.3348,0.002863
954.1985,0.002803
956.0622,0.002767
957.9258,0.002717
959.7895,0.002666
961.6532,0.002570
963.5168,0.002647
965.3805,0.002768
967.2442,0.002752
969.1078,0.002787
970.9715,0.002816
972.8352,0.002858
974.6988,0.002946
976.5625,0.003025
978.4262,0.003057
980.2899,0.003124
982.1535,0.003203
984.0172,0.003278
985.8809,0.003264
987.7445,0.003289
989.6082,0.003436
991.4719,0.003531
993.3355,0.003534
995.1992,0.003644
997.0629,0.003766
998.9265,0.003791
1000.7902,0.003830
1002.6539,0.003979
1004.5175,0.004001
1006.3812,0.004051
1008.2449,0.004167
1010.1086,0.004153
1011.9722,0.004201
1013.8359,0.004304
1015.6996,0.004296
1017.5632,0.004263
1019.4269,0.004374
1021.2906,0.004516
1023.1542,0.004561
1025.0179,0.004532
1026.8816,0.004553
1028.7452,0.004585
1030.6089,0.004570
1032.4726,0.004632
1034.3362,0.004713
1036.1999,0.004803
1038.0636,0.004931
1039.9273,0.004935
1041.7909,0.004864
1043.6546,0.004860
1045.5183,0.004919
1047.3819,0.004878
1049.2456,0.004831
1051.1093,0.004834
1052.9729,0.004842
1054.8366,0.004762
1056.7003,0.004707
1058.5639,0.004714
1060.4276,0.004685
1062.2913,0.004602
1064.1550,0.004494
1066.0186,0.004503
1067.8823,0.004500
1069.7460,0.004474
1071.6096,0.004408
1073.4733,0.004345
1075.3370,0.004304
1077.2006,0.004226
1079.0643,0.004200
1080.9280,0.004174
1082.7916,0.004082
1084.6553,0.004007
1086.5190,0.004028
1088.3826,0.004053
1090.2463,0.003947
1092.1100,0.003846
1093.9737,0.003826
1095.8373,0.003894
1097.7010,0.003864
1099.5647,0.003852
1101.4283,0.003795
1103.2920,0.003670
1105.1557,0.003526
1107.0193,0.003418
1108.8830,0.003367
1110.7467,0.003321
1112.6103,0.003309
1114.4740,0.003254
1116.3377,0.003217
1118.2014,0.003355
1120.0650,0.003412
1121.9287,0.003288
1123.7924,0.003118
1125.6560,0.002967
1127.5197,0.002932
1129.3834,0.002962
1131.2470,0.002894
1133.1107,0.002785
1134.9744,0.002668
1136.8380,0.002592
1138.7017,0.002530
1140.5654,0.002485
1142.4290,0.002511
1144.2927,0.002476
1146.1564,0.002362
1148.0201,0.002304
1149.8837,0.002291
1151.7474,0.002206
1153.6111,0.002064
1155.4747,0.002080
1157.3384,0.002081
1159.2021,0.002017
1161.0657,0.002089
1162.9294,0.002118
1164.7931,0.002063
1166.6567,0.002006
1168.5204,0.001955
1170.3841,0.001869
1172.2477,0.001817
1174.1114,0.001810
1175.9751,0.001779
1177.8388,0.001748
1179.7024,0.001708
1181.5661,0.001612
1183.4298,0.001508
1185.2934,0.001450
1187.1571,0.001447
1189.0208,0.001421
1190.8844,0.001346
1192.7481,0.001305
1194.6118,0.001292
1196.4754,0.001250
1198.3391,0.001178
1200.2028,0.001135
1202.0665,0.001192
1203.9301,0.001197
1205.7938,0.001125
1207.6575,0.001092
1209.5211,0.001022
1211.3848,0.001016
1213.2485,0.001065
1215.1121,0.001003
1216.9758,0.000916
1218.8395,0.000892
1220.7031,0.000838
1222.5668,0.000797
1224.4305,0.000798
1226.2941,0.000776
1228.1578,0.000685
1230.0215,0.000639
1231.8852,0.000681
1233.7488,0.000716
1235.6125,0.000704
1237.4762,0.000603
1239.3398,0.000541
1241.2035,0.000515
1243.0672,0.000531
1244.9308,0.000521
1246.7945,0.000391
1248.6582,0.000334
1250.5218,0.000367
1252.3855,0.000279
1254.2492,0.000221
1256.1129,0.000281
1257.9765,0.000322
1259.8402,0.000311
1261.7039,0.000303
1263.5675,0.000270
1265.4312,0.000192
1267.2949,0.000192
1269.1585,0.000221
1271.0222,0.000206
1272.8859,0.000163
1274.7495,0.000102
1276.6132,0.000125
1278.4769,0.000185
1280.3405,0.000106
1282.2042,0.000048
1284.0679,0.000081
1285.9316,0.000074
1287.7952,0.000127
1289.6589,0.000189
1291.5226,0.000147
1293.3862,0.000083
1295.2499,0.000084
1297.1136,0.000057
1298.9772,0.000013
1300.8409,0.000061
1302.7046,0.000039
1304.5682,0.000006
1306.4319,-0.000019
1308.2956,-0.000034
1310.1592,0.000036
1312.0229,0.000183
1313.8866,0.000221
1315.7503,0.000155
1317.6139,0.000154
1319.4776,0.000125
1321.3413,0.000086
1323.2049,0.000067
1325.0686,0.000055
1326.9323,0.000118
1328.7959,0.000137
1330.6596,0.000083
1332.5233,0.000087
1334.3869,0.000080
1336.2506,0.000067
1338.1143,0.000197
1339.9780,0.000297
1341.8416,0.000081
1343.7053,0.000011
1345.5690,-0.000007
1347.4326,-0.000070
1349.2963,-0.000006
1351.1600,0.000088
1353.0236,0.000095
1354.8873,0.000011
1356.7510,0.000002
1358.6146,0.000006
1360.4783,0.000017
1362.3420,0.000371
1364.2056,0.000449
1366.0693,0.000164
1367.9330,0.000147
1369.7967,0.000098
1371.6603,-0.000044
1373.5240,0.000009
1375.3877,0.000079
1377.2513,0.000136
1379.1150,0.000268
1380.9787,0.000101
1382.8423,0.000072
1384.7060,0.000087
1386.5697,0.000342
1388.4333,0.000366
1390.2970,0.000142
1392.1607,0.000036
1394.0244,0.000216
1395.8880,0.000256
1397.7517,0.000244
1399.6154,0.000410
1401.4790,0.000092
1403.3427,0.000113
1405.2064,0.000260
1407.0700,0.000226
1408.9337,0.000085
1410.7974,0.000089
1412.6610,0.000037
1414.5247,0.000043
1416.3884,0.000084
1418.2520,0.000279
1420.1157,0.000400
1421.9794,0.000216
1423.8431,0.000326
1425.7067,0.000176
1427.5704,0.000005
1429.4341,0.000154
1431.2977,0.000306
1433.1614,0.000022
1435.0251,-0.000151
1436.8887,0.000249
1438.7524,0.000152
1440.6161,0.000159
1442.4797,0.000067
1444.3434,0.000023
1446.2071,0.000069
1448.0707,0.000205
1449.9344,0.000097
1451.7981,0.000115
1453.6618,-0.000114
1455.5254,-0.000137
1457.3891,0.000614
1459.2528,0.000686
1461.1164,0.000286
1462.9801,-0.000088
1464.8438,0.000130
1466.7074,0.000151
1468.5711,-0.000016
1470.4348,-0.000217
1472.2984,0.000186
1474.1621,0.000190
1476.0258,0.000348
1477.8895,0.000125
1479.7531,0.000077
1481.6168,0.000151
1483.4805,-0.000012
1485.3441,-0.000026
1487.2078,-0.000025
1489.0715,0.000090
1490.9351,0.000543
1492.7988,0.000219
1494.6625,0.000049
1496.5261,0.000238
1498.3898,0.000297
1500.2535,0.000257
1502.1171,-0.000032
1503.9808,-0.000443
1505.8445,-0.000015
1507.7082,0.000993
1509.5718,0.000857
1511.4355,0.000494
1513.2992,0.000097
1515.1628,0.000113
1517.0265,0.000385
1518.8902,0.000040
1520.7538,0.000490
1522.6175,0.000588
1524.4812,0.000201
1526.3448,0.000197
1528.2085,0.000329
1530.0722,0.000243
1531.9359,-0.000160
1533.7995,0.000215
1535.6632,0.000188
1537.5269,-0.000061
1539.3905,-0.000098
1541.2542,0.000237
1543.1179,0.000488
1544.9815,0.000592
1546.8452,0.000240
1548.7089,0.000298
1550.5725,0.000404
1552.4362,0.000046
1554.2999,0.000073
1556.1635,-0.000619
1558.0272,-0.000474
1559.8909,0.000994
1561.7546,0.000637
1563.6182,0.000231
1565.4819,0.000111
1567.3456,-0.000070
1569.2092,0.000136
1571.0729,0.000266
1572.9366,0.000026
1574.8002,-0.000113
1576.6639,0.000188
1578.5276,0.000017
1580.3912,-0.000109
1582.2549,-0.000174
1584.1186,-0.000153
1585.9822,-0.000177
1587.8459,-0.000170
1589.7096,-0.000118
1591.5733,-0.000102
1593.4369,-0.000204
1595.3006,-0.000307
1597.1643,-0.000247
1599.0279,-0.000227
1600.8916,-0.000179
1602.7553,-0.000060
1604.6189,-0.000125
1606.4826,-0.000273
1608.3463,-0.000139
1610.2099,-0.000100
1612.0736,-0.000052
1613.9373,-0.000266
1615.8010,-0.000089
1617.6646,0.000027
1619.5283,-0.000158
1621.3920,-0.000180
1623.2556,0.000069
1625.1193,0.000094
1626.9830,0.000180
1628.8466,0.000050
1630.7103,-0.000132
1632.5740,-0.000328
1634.4376,-0.000343
1636.3013,0.000139
1638.1650,0.000354
1640.0286,0.000237
1641.8923,-0.000153
1643.7560,-0.000373
1645.6197,-0.000362
1647.4833,0.000173
1649.3470,-0.000075
1651.2107,-0.000652
1653.0743,-0.000167
1654.9380,0.000224
1656.8017,0.000117
1658.6653,-0.000052
1660.5290,-0.000160
1662.3927,0.000033
1664.2563,0.000019
1666.1200,-0.000088
1667.9837,-0.000152
1669.8474,0.000099
1671.7110,-0.000007
1673.5747,-0.000227
1675.4384,0.000070
1677.3020,-0.000036
1679.1657,0.000060
1681.0294,-0.000184
1682.8930,-0.000370
1684.7567,0.000530
1686.6204,0.000403
1688.4840,0.000257
1690.3477,0.000003
1692.2114,-0.000209
1694.0750,-0.000488
1695.9387,0.000050
1697.8024,-0.000039
1699.6661,0.000529
1701.5297,0.000292
1703.3934,0.000122
1705.2571,0.000135
1707.1207,-0.000046
1708.9844,0.000000
1710.8481,-0.000096
1712.7117,-0.000256
1714.5754,-0.000053
1716.4391,0.000281
1718.3027,0.000564
1720.1664,0.000172
1722.0301,0.000055
1723.8937,-0.000074
1725.7574,-0.000153
1727.6211,-0.000140
1729.4848,0.000141
1731.3484,0.000002
1733.2121,0.000069
1735.0758,0.000411
1736.9394,0.000171
1738.8031,0.000043
1740.6668,-0.000227
1742.5304,0.000089
1744.3941,0.000231
1746.2578,0.000246
1748.1214,0.000028
1749.9851,-0.000231
1751.8488,0.000056
1753.7125,-0.000087
1755.5761,-0.000095
1757.4398,-0.000031
1759.3035,-0.000201
1761.1671,-0.000006
1763.0308,0.000197
1764.8945,0.000016
1766.7581,-0.000152
1768.6218,-0.000263
1770.4855,-0.000240
1772.3491,0.000248
1774.2128,0.000127
1776.0765,-0.000068
1777.9401,-0.000302
1779.8038,-0.000164
1781.6675,-0.000268
1783.5312,-0.000285
1785.3948,-0.000129
1787.2585,-0.000262
1789.1222,-0.000262
1790.9858,0.000024
1792.8495,0.000139
1794.7132,-0.000170
1796.5768,-0.000283
1798.4405,-0.000287
1800.3042,-0.000141
1802.1678,0.000000
1804.0315,0.000056
1805.8952,-0.000043
1807.7589,-0.000214
1809.6225,-0.000307
1811.4862,-0.000239
1813.3499,-0.000279
1815.2135,-0.000247
1817.0772,-0.000066
1818.9409,-0.000122
1820.8045,-0.000338
1822.6682,-0.000446
1824.5319,-0.000336
1826.3955,-0.000299
1828.2592,-0.000313
1830.1229,0.000007
1831.9865,-0.000193
1833.8502,-0.000443
1835.7139,-0.000349
1837.5776,-0.000101
1839.4412,-0.000257
1841.3049,-0.000324
1843.1686,-0.000171
1845.0322,-0.000374
1846.8959,-0.000557
1848.7596,-0.000233
1850.6232,-0.000181
1852.4869,-0.000335
1854.3506,-0.000577
1856.2142,-0.000260
1858.0779,-0.000139
1859.9416,-0.000233
1861.8052,-0.000171
1863.6689,-0.000244
1865.5326,-0.000549
1867.3963,-0.000372
1869.2599,0.000026
1871.1236,-0.000037
1872.9873,-0.000458
1874.8509,-0.000629
1876.7146,-0.000362
1878.5783,-0.000242
1880.4419,-0.000254
1882.3056,-0.000419
1884.1693,-0.000680
1886.0329,-0.000447
1887.8966,-0.000370
1889.7603,-0.000294
1891.6240,-0.000334
1893.4876,-0.000539
1895.3513,-0.000588
1897.2150,-0.000296
1899.0786,-0.000146
1900.9423,-0.000124
1902.8060,-0.000229
1904.6696,-0.000221
1906.5333,-0.000278
1908.3970,-0.000451
1910.2606,-0.000522
1912.1243,-0.000533
1913.9880,-0.000526
1915.8516,-0.000371
1917.7153,-0.000133
1919.5790,-0.000188
1921.4427,-0.000588
1923.3063,-0.000494
1925.1700,0.000004
1927.0337,-0.000205
1928.8973,-0.000765
1930.7610,-0.000527
1932.6247,-0.000762
1934.4883,-0.001022
1936.3520,-0.000815
1938.2157,-0.000543
1940.0793,-0.000428
1941.9430,-0.000185
1943.8067,-0.000069
1945.6704,0.000007
1947.5340,-0.000203
1949.3977,-0.000542
1951.2614,-0.000834
1953.1250,-0.000999
1954.9887,-0.001051
1956.8524,-0.000882
1958.7160,-0.000450
1960.5797,-0.000056
1962.4434,-0.000063
1964.3070,-0.000235
1966.1707,-0.000371
1968.0344,0.000107
1969.8980,0.000325
1971.7617,-0.000175
1973.6254,-0.000740
1975.4891,-0.000718
1977.3527,-0.000401
1979.2164,-0.000555
1981.0801,-0.000554
1982.9437,0.000087
1984.8074,0.000130
1986.6711,-0.000561
1988.5347,-0.001051
1990.3984,-0.001109
1992.2621,-0.000659
1994.1257,0.000000
1995.9894,-0.000179
1997.8531,-0.000756
1999.7167,-0.000866
2001.5804,-0.000366
2003.4441,-0.000402
2005.3078,-0.000630
2007.1714,-0.000745
2009.0351,-0.001420
2010.8988,-0.001528
2012.7624,-0.000792
2014.6261,-0.000822
2016.4898,-0.001138
2018.3534,-0.001041
2020.2171,-0.000732
2022.0808,-0.000879
2023.9444,-0.001217
2025.8081,-0.000691
2027.6718,-0.000231
2029.5355,-0.000799
2031.3991,-0.000971
2033.2628,-0.000427
2035.1265,0.000026
2036.9901,0.000128
2038.8538,-0.000340
2040.7175,-0.000724
2042.5811,-0.000827
2044.4448,-0.001155
2046.3085,-0.001064
2048.1721,-0.000651
2050.0358,-0.000659
2051.8995,-0.000971
2053.7631,-0.001078
2055.6268,-0.000940
2057.4905,-0.000636
2059.3542,-0.000710
2061.2178,-0.000775
2063.0815,-0.000687
2064.9452,-0.000566
2066.8088,-0.000667
2068.6725,-0.001315
2070.5362,-0.001564
2072.3998,-0.001065
2074.2635,-0.001049
2076.1272,-0.001221
2077.9908,-0.000921
2079.8545,-0.000798
2081.7182,-0.000743
2083.5819,-0.000696
2085.4455,-0.000802
2087.3092,-0.000632
2089.1729,-0.000830
2091.0365,-0.001001
2092.9002,-0.000787
2094.7639,-0.000669
2096.6275,-0.000470
2098.4912,-0.000439
2100.3549,-0.000595
2102.2185,-0.000345
2104.0822,-0.000456
2105.9459,-0.000854
2107.8095,-0.000808
2109.6732,-0.000781
2111.5369,-0.001012
2113.4006,-0.001102
2115.2642,-0.000960
2117.1279,-0.000630
2118.9916,-0.000947
2120.8552,-0.001232
2122.7189,-0.000948
2124.5826,-0.000907
2126.4462,-0.000655
2128.3099,-0.000216
2130.1736,-0.000351
2132.0372,-0.000807
2133.9009,-0.000727
2135.7646,-0.000607
2137.6282,-0.001104
2139.4919,-0.001195
2141.3556,-0.001389
2143.2193,-0.001229
2145.0829,-0.000708
2146.9466,-0.000847
2148.8103,-0.001178
2150.6739,-0.001264
2152.5376,-0.000841
2154.4013,-0.000539
2156.2649,-0.001014
2158.1286,-0.001250
2159.9923,-0.000989
2161.8559,-0.000782
2163.7196,-0.000808
2165.5833,-0.000734
2167.4470,-0.001265
2169.3106,-0.001729
2171.1743,-0.001182
2173.0380,-0.000610
2174.9016,-0.000982
2176.7653,-0.002502
2178.6290,-0.003304
2180.4926,-0.002047
2182.3563,-0.000979
2184.2200,-0.000387
2186.0836,0.000054
2187.9473,-0.000706
2189.8110,-0.001516
2191.6746,-0.001015
2193.5383,0.000126
2195.4020,0.000411
2197.2657,-0.000244
2199.1293,-0.000660
2200.9930,-0.000876
2202.8567,-0.001296
2204.7203,-0.001601
2206.5840,-0.001124
2208.4477,-0.000869
2210.3113,-0.001225
2212.1750,-0.001154
2214.0387,-0.001138
2215.9023,-0.001312
2217.7660,-0.001218
2219.6297,-0.001190
2221.4934,-0.001560
2223.3570,-0.001671
2225.2207,-0.001163
2227.0844,-0.001145
2228.9480,-0.001338
2230.8117,-0.001130
2232.6754,-0.000891
2234.5390,-0.000733
2236.4027,-0.000650
2238.2664,-0.000874
2240.1300,-0.001245
2241.9937,-0.000882
2243.8574,-0.000231
2245.7210,-0.000682
2247.5847,-0.001253
2249.4484,-0.001098
2251.3121,-0.000956
2253.1757,-0.000890
2255.0394,-0.000792
2256.9031,-0.000789
2258.7667,-0.000716
2260.6304,-0.000550
2262.4941,-0.000359
2264.3577,-0.000211
2266.2214,-0.000130
2268.0851,-0.000394
2269.9487,-0.000477
2271.8124,-0.000571
2273.6761,-0.000754
2275.5397,-0.000624
2277.4034,-0.000700
2279.2671,-0.000923
2281.1308,-0.000936
2282.9944,-0.000507
2284.8581,0.000133
2286.7218,0.000168
2288.5854,-0.000385
2290.4491,-0.000561
2292.3128,-0.000242
2294.1764,0.000040
2296.0401,0.000281
2297.9038,0.000486
2299.7674,0.000656
2301.6311,0.000907
2303.4948,0.001253
2305.3585,0.001688
2307.2221,0.002010
2309.0858,0.002305
2310.9495,0.002805
2312.8131,0.003165
2314.6768,0.003533
2316.5405,0.004160
2318.4041,0.004725
2320.2678,0.005307
2322.1315,0.006102
2323.9951,0.006792
2325.8588,0.007149
2327.7225,0.007175
2329.5861,0.007252
2331.4498,0.007569
2333.3135,0.007966
2335.1772,0.008191
2337.0408,0.008052
2338.9045,0.008249
2340.7682,0.008612
2342.6318,0.008636
2344.4955,0.008352
2346.3592,0.007450
2348.2228,0.005863
2350.0865,0.005558
2351.9502,0.007050
2353.8138,0.008469
2355.6775,0.009229
2357.5412,0.010269
2359.4049,0.011660
2361.2685,0.012299
2363.1322,0.012238
2364.9959,0.011493
2366.8595,0.010260
2368.7232,0.009213
2370.5869,0.008559
2372.4505,0.007475
2374.3142,0.006193
2376.1779,0.005296
2378.0415,0.004095
2379.9052,0.002437
2381.7689,0.001010
2383.6325,0.000162
2385.4962,-0.000249
2387.3599,-0.000578
2389.2236,-0.000867
2391.0872,-0.000886
2392.9509,-0.000926
2394.8146,-0.001226
2396.6782,-0.001080
2398.5419,-0.000794
2400.4056,-0.000946
2402.2692,-0.001041
2404.1329,-0.000967
2405.9966,-0.001070
2407.8602,-0.001105
2409.7239,-0.000788
2411.5876,-0.000549
2413.4512,-0.000880
2415.3149,-0.001239
2417.1786,-0.001079
2419.0423,-0.000679
2420.9059,-0.000725
2422.7696,-0.001195
2424.6333,-0.001252
2426.4969,-0.000975
2428.3606,-0.001025
2430.2243,-0.001086
2432.0879,-0.000882
2433.9516,-0.000798
2435.8153,-0.000970
2437.6789,-0.001203
2439.5426,-0.001276
2441.4063,-0.001123
2443.2700,-0.001106
2445.1336,-0.001242
2446.9973,-0.001057
2448.8610,-0.000897
2450.7246,-0.001029
2452.5883,-0.001014
2454.4520,-0.000759
2456.3156,-0.000545
2458.1793,-0.000731
2460.0430,-0.001044
2461.9066,-0.001139
2463.7703,-0.000980
2465.6340,-0.000929
2467.4976,-0.000870
2469.3613,-0.000845
2471.2250,-0.001161
2473.0887,-0.001298
2474.9523,-0.000922
2476.8160,-0.000882
2478.6797,-0.001225
2480.5433,-0.001406
2482.4070,-0.001169
2484.2707,-0.000835
2486.1343,-0.000830
2487.9980,-0.000961
2489.8617,-0.000829
2491.7253,-0.000808
2493.5890,-0.001214
2495.4527,-0.001413
2497.3164,-0.001082
2499.1800,-0.000865
2501.0437,-0.000833
2502.9074,-0.000704
2504.7710,-0.000911
2506.6347,-0.001325
2508.4984,-0.001544
2510.3620,-0.001559
2512.2257,-0.001312
2514.0894,-0.001246
2515.9530,-0.001225
2517.8167,-0.000895
2519.6804,-0.000747
2521.5440,-0.000676
2523.4077,-0.000608
2525.2714,-0.000855
2527.1351,-0.001305
2528.9987,-0.001417
2530.8624,-0.001049
2532.7261,-0.000981
2534.5897,-0.001041
2536.4534,-0.001041
2538.3171,-0.000969
2540.1807,-0.001058
2542.0444,-0.001300
2543.9081,-0.001223
2545.7717,-0.001079
2547.6354,-0.001248
2549.4991,-0.001078
2551.3627,-0.000941
2553.2264,-0.000903
2555.0901,-0.001063
2556.9538,-0.001384
2558.8174,-0.000978
2560.6811,-0.000620
2562.5448,-0.001002
2564.4084,-0.001262
2566.2721,-0.001274
2568.1358,-0.001300
2569.9994,-0.001278
2571.8631,-0.001093
2573.7268,-0.000721
2575.5904,-0.000827
2577.4541,-0.001264
2579.3178,-0.001293
2581.1815,-0.001240
2583.0451,-0.001151
2584.9088,-0.001113
2586.7725,-0.001118
2588.6361,-0.001113
2590.4998,-0.001072
2592.3635,-0.000988
2594.2271,-0.001121
2596.0908,-0.001270
2597.9545,-0.001189
2599.8181,-0.000969
2601.6818,-0.001035
2603.5455,-0.001189
2605.4091,-0.001099
2607.2728,-0.001258
2609.1365,-0.001241
2611.0002,-0.000903
2612.8638,-0.000942
2614.7275,-0.001292
2616.5912,-0.001105
2618.4548,-0.000673
2620.3185,-0.000839
2622.1822,-0.001116
2624.0458,-0.000989
2625.9095,-0.000999
2627.7732,-0.001179
2629.6368,-0.001131
2631.5005,-0.001139
2633.3642,-0.001211
2635.2279,-0.001019
2637.0915,-0.000812
2638.9552,-0.000913
2640.8189,-0.001099
2642.6825,-0.001186
2644.5462,-0.001173
2646.4099,-0.000978
2648.2735,-0.001060
2650.1372,-0.001270
2652.0009,-0.001237
2653.8645,-0.001087
2655.7282,-0.000932
2657.5919,-0.000920
2659.4555,-0.000951
2661.3192,-0.001133
2663.1829,-0.001248
2665.0466,-0.001160
2666.9102,-0.001071
2668.7739,-0.000986
2670.6376,-0.001049
2672.5012,-0.001140
2674.3649,-0.001203
2676.2286,-0.001236
2678.0922,-0.001121
2679.9559,-0.001163
2681.8196,-0.001211
2683.6832,-0.001144
2685.5469,-0.001234
2687.4106,-0.001367
2689.2742,-0.001275
2691.1379,-0.001066
2693.0016,-0.001074
2694.8653,-0.001036
2696.7289,-0.001164
2698.5926,-0.001303
2700.4563,-0.001314
2702.3199,-0.001268
2704.1836,-0.001105
2706.0473,-0.001019
2707.9109,-0.001143
2709.7746,-0.001307
2711.6383,-0.001382
2713.5019,-0.001340
2715.3656,-0.001171
2717.2293,-0.001127
2719.0930,-0.001161
2720.9566,-0.001020
2722.8203,-0.000989
2724.6840,-0.001185
2726.5476,-0.001405
2728.4113,-0.001264
2730.2750,-0.000979
2732.1386,-0.001056
2734.0023,-0.001228
2735.8660,-0.001264
2737.7296,-0.001256
2739.5933,-0.001405
2741.4570,-0.001580
2743.3206,-0.001419
2745.1843,-0.001079
2747.0480,-0.000898
2748.9117,-0.000965
2750.7753,-0.001079
2752.6390,-0.001179
2754.5027,-0.001485
2756.3663,-0.001456
2758.2300,-0.001196
2760.0937,-0.001232
2761.9573,-0.001362
2763.8210,-0.001377
2765.6847,-0.001038
2767.5483,-0.000867
2769.4120,-0.001219
2771.2757,-0.001430
2773.1394,-0.001326
2775.0030,-0.001319
2776.8667,-0.001294
2778.7304,-0.001145
2780.5940,-0.000822
2782.4577,-0.000641
2784.3214,-0.000972
2786.1850,-0.001279
2788.0487,-0.001106
2789.9124,-0.000922
2791.7760,-0.001063
2793.6397,-0.001295
2795.5034,-0.001342
2797.3670,-0.001176
2799.2307,-0.001156
2801.0944,-0.001243
2802.9581,-0.001143
2804.8217,-0.001045
2806.6854,-0.001081
2808.5491,-0.001140
2810.4127,-0.001291
2812.2764,-0.001343
2814.1401,-0.001150
2816.0037,-0.001230
2817.8674,-0.001392
2819.7311,-0.001169
2821.5947,-0.001109
2823.4584,-0.001455
2825.3221,-0.001470
2827.1857,-0.001318
2829.0494,-0.001055
2830.9131,-0.000746
2832.7768,-0.000973
2834.6404,-0.001389
2836.5041,-0.001317
2838.3678,-0.001202
2840.2314,-0.001403
2842.0951,-0.001579
2843.9588,-0.001533
2845.8224,-0.001181
2847.6861,-0.001051
2849.5498,-0.000859
2851.4134,-0.000696
2853.2771,-0.001099
2855.1408,-0.001286
2857.0045,-0.001016
2858.8681,-0.000947
2860.7318,-0.001252
2862.5955,-0.001487
2864.4591,-0.001453
2866.3228,-0.001513
2868.1865,-0.001342
2870.0501,-0.001092
2871.9138,-0.001183
2873.7775,-0.001087
2875.6411,-0.000625
2877.5048,-0.000836
2879.3685,-0.001001
2881.2321,-0.000810
2883.0958,-0.001132
2884.9595,-0.001258
2886.8232,-0.001529
2888.6868,-0.001697
2890.5505,-0.001127
2892.4142,-0.001224
2894.2778,-0.001441
2896.1415,-0.001083
2898.0052,-0.000929
2899.8688,-0.000913
2901.7325,-0.000944
2903.5962,-0.001100
2905.4598,-0.000851
2907.3235,-0.000871
2909.1872,-0.001504
2911.0509,-0.001429
2912.9145,-0.001041
2914.7782,-0.001176
2916.6419,-0.001102
2918.5055,-0.000976
2920.3692,-0.001076
2922.2329,-0.001233
2924.0965,-0.001000
2925.9602,-0.000949
2927.8239,-0.001252
2929.6875,-0.000825
2931.5512,-0.000630
2933.4149,-0.001027
2935.2785,-0.001068
2937.1422,-0.000993
2939.0059,-0.001331
2940.8696,-0.001280
2942.7332,-0.000764
2944.5969,-0.000706
2946.4606,-0.001348
2948.3242,-0.001485
2950.1879,-0.001123
2952.0516,-0.001323
2953.9152,-0.001476
2955.7789,-0.001465
2957.6426,-0.001672
2959.5062,-0.001339
2961.3699,-0.000865
2963.2336,-0.000617
2965.0972,-0.000752
2966.9609,-0.001077
2968.8246,-0.001253
2970.6883,-0.001219
2972.5519,-0.001116
2974.4156,-0.001084
2976.2793,-0.001293
2978.1429,-0.001685
2980.0066,-0.001921
2981.8703,-0.001631
2983.7339,-0.001315
2985.5976,-0.001544
2987.4613,-0.001759
2989.3249,-0.001751
2991.1886,-0.001649
2993.0523,-0.001429
2994.9160,-0.001443
2996.7796,-0.001426
2998.6433,-0.001201
3000.5070,-0.001580
3002.3706,-0.001816
3004.2343,-0.001240
3006.0980,-0.001129
3007.9616,-0.001255
3009.8253,-0.001221
3011.6890,-0.001022
3013.5526,-0.001279
3015.4163,-0.001812
3017.2800,-0.001659
3019.1436,-0.001412
3021.0073,-0.001604
3022.8710,-0.001585
3024.7347,-0.001581
3026.5983,-0.001988
3028.4620,-0.002052
3030.3257,-0.001602
3032.1893,-0.001455
3034.0530,-0.001703
3035.9167,-0.001462
3037.7803,-0.000997
3039.6440,-0.001160
3041.5077,-0.001368
3043.3713,-0.001515
3045.2350,-0.001575
3047.0987,-0.001342
3048.9624,-0.001284
3050.8260,-0.001425
3052.6897,-0.001548
3054.5534,-0.001696
3056.4170,-0.001675
3058.2807,-0.001807
3060.1444,-0.001920
3062.0080,-0.001600
3063.8717,-0.001467
3065.7354,-0.001656
3067.5990,-0.001516
3069.4627,-0.001754
3071.3264,-0.002269
3073.1900,-0.002135
3075.0537,-0.001602
3076.9174,-0.001368
3078.7811,-0.001879
3080.6447,-0.002149
3082.5084,-0.001813
3084.3721,-0.001889
3086.2357,-0.001978
3088.0994,-0.001701
3089.9631,-0.001718
3091.8267,-0.001529
3093.6904,-0.001185
3095.5541,-0.001349
3097.4177,-0.001401
3099.2814,-0.001424
3101.1451,-0.001766
3103.0087,-0.001544
3104.8724,-0.001473
3106.7361,-0.001847
3108.5998,-0.001593
3110.4634,-0.001338
3112.3271,-0.001745
3114.1908,-0.001937
3116.0544,-0.002370
3117.9181,-0.002403
3119.7818,-0.001843
3121.6454,-0.001730
3123.5091,-0.001792
3125.3728,-0.001907
3127.2364,-0.001638
3129.1001,-0.000767
3130.9638,-0.000572
3132.8275,-0.001075
3134.6911,-0.001224
3136.5548,-0.001380
3138.4185,-0.001706
3140.2821,-0.001881
3142.1458,-0.002015
3144.0095,-0.001704
3145.8731,-0.001277
3147.7368,-0.001126
3149.6005,-0.001449
3151.4641,-0.001971
3153.3278,-0.002405
3155.1915,-0.002915
3157.0551,-0.002887
3158.9188,-0.002028
3160.7825,-0.001674
3162.6462,-0.002378
3164.5098,-0.002307
3166.3735,-0.001764
3168.2372,-0.001616
3170.1008,-0.001764
3171.9645,-0.001821
3173.8282,-0.001526
3175.6918,-0.001121
3177.5555,-0.001431
3179.4192,-0.002031
3181.2828,-0.002101
3183.1465,-0.002226
3185.0102,-0.002182
3186.8739,-0.001855
3188.7375,-0.002047
3190.6012,-0.002273
3192.4649,-0.001880
3194.3285,-0.001346
3196.1922,-0.001297
3198.0559,-0.001808
3199.9195,-0.002139
3201.7832,-0.001765
3203.6469,-0.001614
3205.5105,-0.001752
3207.3742,-0.001280
3209.2379,-0.001088
3211.1015,-0.001736
3212.9652,-0.002135
3214.8289,-0.001593
3216.6926,-0.001352
3218.5562,-0.001776
3220.4199,-0.001225
3222.2836,-0.001766
3224.1472,-0.002794
3226.0109,-0.002397
3227.8746,-0.002209
3229.7382,-0.002824
3231.6019,-0.002318
3233.4656,-0.001369
3235.3292,-0.001217
3237.1929,-0.001663
3239.0566,-0.001668
3240.9202,-0.001728
3242.7839,-0.002077
3244.6476,-0.002244
3246.5113,-0.002298
3248.3749,-0.002212
3250.2386,-0.001824
3252.1023,-0.002079
3253.9659,-0.002726
3255.8296,-0.002751
3257.6933,-0.002483
3259.5569,-0.002494
3261.4206,-0.002510
3263.2843,-0.002413
3265.1479,-0.002303
3267.0116,-0.002354
3268.8753,-0.002201
3270.7390,-0.002061
3272.6026,-0.002073
3274.4663,-0.001874
3276.3300,-0.001460
3278.1936,-0.001430
3280.0573,-0.001772
3281.9210,-0.002490
3283.7846,-0.002395
3285.6483,-0.002072
3287.5120,-0.002412
3289.3756,-0.002247
3291.2393,-0.001236
3293.1030,-0.000864
3294.9666,-0.001686
3296.8303,-0.002189
3298.6940,-0.002447
3300.5577,-0.002468
3302.4213,-0.002163
3304.2850,-0.002330
3306.1487,-0.002551
3308.0123,-0.001797
3309.8760,-0.000338
3311.7397,0.000174
3313.6033,-0.000875
3315.4670,-0.001139
3317.3307,-0.001537
3319.1943,-0.002245
3321.0580,-0.002493
3322.9217,-0.002336
3324.7854,-0.002427
3326.6490,-0.002548
3328.5127,-0.002689
3330.3764,-0.001581
3332.2400,-0.001076
3334.1037,-0.001141
3335.9674,-0.001369
3337.8310,-0.001606
3339.6947,-0.001164
3341.5584,-0.001588
3343.4220,-0.002856
3345.2857,-0.002600
3347.1494,-0.001611
3349.0130,-0.001108
3350.8767,-0.001146
3352.7404,-0.001982
3354.6041,-0.002897
3356.4677,-0.002733
3358.3314,-0.002575
3360.1951,-0.002009
3362.0587,-0.002061
3363.9224,-0.003114
3365.7861,-0.003164
3367.6497,-0.002228
3369.5134,-0.001597
3371.3771,-0.001331
3373.2407,-0.001709
3375.1044,-0.002440
3376.9681,-0.002709
3378.8317,-0.002315
3380.6954,-0.001386
3382.5591,-0.000803
3384.4228,-0.001379
3386.2864,-0.001957
3388.1501,-0.002652
3390.0138,-0.002993
3391.8774,-0.002173
3393.7411,-0.001880
3395.6048,-0.002322
3397.4684,-0.002564
3399.3321,-0.002198
3401.1958,-0.002106
3403.0594,-0.002235
3404.9231,-0.001818
3406.7868,-0.002346
3408.6505,-0.002479
3410.5141,-0.002245
3412.3778,-0.002503
3414.2415,-0.002502
3416.1051,-0.001969
3417.9688,-0.002169
3419.8325,-0.001962
3421.6961,-0.001662
3423.5598,-0.003127
3425.4235,-0.003030
3427.2871,-0.001603
3429.1508,-0.001646
3431.0145,-0.001621
3432.8781,-0.002013
3434.7418,-0.002978
3436.6055,-0.003636
3438.4692,-0.003466
3440.3328,-0.001931
3442.1965,-0.001097
3444.0602,-0.002048
3445.9238,-0.003336
3447.7875,-0.003428
3449.6512,-0.003885
3451.5148,-0.002655
3453.3785,-0.001155
3455.2422,-0.001425
3457.1058,-0.001024
3458.9695,-0.001461
3460.8332,-0.002331
3462.6969,-0.002887
3464.5605,-0.002875
3466.4242,-0.001600
3468.2879,-0.002058
3470.1515,-0.003181
3472.0152,-0.002088
3473.8789,-0.001612
3475.7425,-0.001876
3477.6062,-0.001337
3479.4699,-0.002173
3481.3335,-0.003174
3483.1972,-0.001644
3485.0609,-0.000306
3486.9245,-0.001546
3488.7882,-0.002246
3490.6519,-0.001050
3492.5156,-0.001069
3494.3792,-0.001619
3496.2429,-0.002286
3498.1066,-0.002590
3499.9702,-0.001830
3501.8339,-0.001289
3503.6976,-0.001046
3505.5612,-0.001256
3507.4249,-0.001586
3509.2886,-0.001833
3511.1522,-0.002591
3513.0159,-0.002233
3514.8796,-0.001294
3516.7432,-0.001294
3518.6069,-0.001603
3520.4706,-0.001386
3522.3343,-0.003039
3524.1979,-0.004557
3526.0616,-0.002543
3527.9253,-0.000712
3529.7889,-0.001025
3531.6526,-0.001239
3533.5163,-0.000877
3535.3799,-0.001683
3537.2436,-0.002484
3539.1073,-0.002665
3540.9709,-0.002559
3542.8346,-0.002250
3544.6983,-0.001885
3546.5620,-0.000492
3548.4256,-0.001133
3550.2893,-0.001873
3552.1530,-0.002004
3554.0166,-0.002705
3555.8803,-0.002045
3557.7440,-0.001777
3559.6076,-0.001830
3561.4713,-0.001589
3563.3350,-0.001103
3565.1986,-0.002112
3567.0623,-0.003317
3568.9260,-0.002858
3570.7896,-0.001520
3572.6533,-0.000930
3574.5170,-0.002106
3576.3807,-0.002386
3578.2443,-0.001358
3580.1080,-0.000941
3581.9717,-0.001183
3583.8353,-0.001019
3585.6990,-0.001570
3587.5627,-0.001997
3589.4263,-0.002010
3591.2900,-0.001383
3593.1537,-0.001123
3595.0173,-0.001127
3596.8810,-0.000741
3598.7447,-0.000710
3600.6084,-0.001054
3602.4720,-0.001411
3604.3357,-0.001257
3606.1994,-0.001218
3608.0630,-0.001064
3609.9267,-0.000744
3611.7904,-0.001335
3613.6540,-0.002340
3615.5177,-0.002118
3617.3814,-0.002608
3619.2450,-0.002839
3621.1087,-0.001282
3622.9724,-0.000688
3624.8360,-0.001167
3626.6997,-0.001776
3628.5634,-0.001809
3630.4271,-0.001810
3632.2907,-0.000205
3634.1544,0.000124
3636.0181,-0.001080
3637.8817,-0.001842
3639.7454,-0.001714
3641.6091,-0.001224
3643.4727,-0.001571
3645.3364,-0.001527
3647.2001,-0.001798
3649.0637,-0.002219
3650.9274,-0.000825
3652.7911,0.000007
3654.6547,-0.001314
3656.5184,-0.002285
3658.3821,-0.001991
3660.2458,-0.001177
3662.1094,-0.001205
3663.9731,-0.001610
3665.8368,-0.001909
3667.7004,-0.001284
3669.5641,-0.000971
3671.4278,-0.001402
3673.2914,-0.001483
3675.1551,-0.001186
3677.0188,-0.001556
3678.8824,-0.001049
3680.7461,-0.001179
3682.6098,-0.001300
3684.4735,-0.001271
3686.3371,-0.001768
3688.2008,-0.002013
3690.0645,-0.001747
3691.9281,-0.001015
3693.7918,-0.001093
3695.6555,-0.001275
3697.5191,-0.001583
3699.3828,-0.001895
3701.2465,-0.001889
3703.1101,-0.001954
3704.9738,-0.001272
3706.8375,-0.001203
3708.7011,-0.001659
3710.5648,-0.001741
3712.4285,-0.002139
3714.2922,-0.001470
3716.1558,-0.000821
3718.0195,-0.001226
3719.8832,-0.001396
3721.7468,-0.000581
3723.6105,-0.000424
3725.4742,-0.000960
3727.3378,-0.000947
3729.2015,-0.000045
3731.0652,-0.001024
3732.9288,-0.002744
3734.7925,-0.001876
3736.6562,-0.001200
3738.5199,-0.000496
3740.3835,-0.000179
3742.2472,-0.001183
3744.1109,-0.001402
3745.9745,-0.001728
3747.8382,-0.001204
3749.7019,-0.001600
3751.5655,-0.001707
3753.4292,-0.001919
3755.2929,-0.001468
3757.1565,-0.001642
3759.0202,-0.002401
3760.8839,-0.001932
3762.7475,-0.001869
3764.6112,-0.002376
3766.4749,-0.002588
3768.3386,-0.001273
3770.2022,-0.000735
3772.0659,-0.001670
3773.9296,-0.002162
3775.7932,-0.002041
3777.6569,-0.001837
3779.5206,-0.001826
3781.3842,-0.001858
3783.2479,-0.001720
3785.1116,-0.002490
3786.9752,-0.002070
3788.8389,-0.000912
3790.7026,-0.000895
3792.5662,-0.001230
3794.4299,-0.001488
3796.2936,-0.001489
3798.1573,-0.001481
3800.0209,-0.001474
3801.8846,-0.002162
3803.7483,-0.001937
3805.6119,-0.002105
3807.4756,-0.002855
3809.3393,-0.002364
3811.2029,-0.001726
3813.0666,-0.001912
3814.9303,-0.001806
3816.7939,-0.002566
3818.6576,-0.002675
3820.5213,-0.002065
3822.3850,-0.001999
3824.2486,-0.000792
3826.1123,-0.001406
3827.9760,-0.002101
3829.8396,-0.001497
3831.7033,-0.001913
3833.5670,-0.001943
3835.4306,-0.001294
3837.2943,-0.001033
3839.1580,-0.000929
3841.0216,-0.001351
3842.8853,-0.001447
3844.7490,-0.001987
3846.6126,-0.002110
3848.4763,-0.002004
3850.3400,-0.002076
3852.2037,-0.001822
3854.0673,-0.002458
3855.9310,-0.001735
3857.7947,-0.000381
3859.6583,-0.001050
3861.5220,-0.001835
3863.3857,-0.002118
3865.2493,-0.001544
3867.1130,-0.001650
3868.9767,-0.001368
3870.8403,-0.002134
3872.7040,-0.001453
3874.5677,-0.001415
3876.4314,-0.002402
3878.2950,-0.002470
3880.1587,-0.002287
3882.0224,-0.001234
3883.8860,-0.000876
3885.7497,-0.001603
3887.6134,-0.001629
3889.4770,-0.001282
3891.3407,-0.001482
3893.2044,-0.001434
3895.0680,-0.001279
3896.9317,-0.001941
3898.7954,-0.002541
3900.6590,-0.002099
3902.5227,-0.001494
3904.3864,-0.001603
3906.2501,-0.002176
3908.1137,-0.001953
3909.9774,-0.001883
3911.8411,-0.001834
3913.7047,-0.001784
3915.5684,-0.001742
3917.4321,-0.001574
3919.2957,-0.001361
3921.1594,-0.001192
3923.0231,-0.001257
3924.8867,-0.001827
3926.7504,-0.002318
3928.6141,-0.001426
3930.4777,-0.001252
3932.3414,-0.001901
3934.2051,-0.002263
3936.0688,-0.002118
3937.9324,-0.001659
3939.7961,-0.001654
3941.6598,-0.001912
3943.5234,-0.001656
3945.3871,-0.001436
3947.2508,-0.001286
3949.1144,-0.001055
3950.9781,-0.001495
3952.8418,-0.002170
3954.7054,-0.001594
3956.5691,-0.001393
3958.4328,-0.001537
3960.2965,-0.001632
3962.1601,-0.001801
3964.0238,-0.001741
3965.8875,-0.001811
3967.7511,-0.002357
3969.6148,-0.001943
3971.4785,-0.001822
3973.3421,-0.002379
3975.2058,-0.002805
3977.0695,-0.002484
3978.9331,-0.001979
3980.7968,-0.001781
3982.6605,-0.002128
3984.5241,-0.002363
3986.3878,-0.001742
3988.2515,-0.001358
3990.1152,-0.001814
3991.9788,-0.002016
3993.8425,-0.001615
3995.7062,-0.001595
3997.5698,-0.002079
3999.4335,-0.002199
4001.2972,-0.002327
4003.1608,-0.002530
4005.0245,-0.002409
4006.8882,-0.001675
4008.7518,-0.001871
4010.6155,-0.002267
4012.4792,-0.002350
4014.3429,-0.001925
4016.2065,-0.002131
4018.0702,-0.002181
4019.9339,-0.002012
4021.7975,-0.002132
4023.6612,-0.002479
4025.5249,-0.001582
4027.3885,-0.001314
4029.2522,-0.002292
4031.1159,-0.002833
4032.9795,-0.002484
4034.8432,-0.002183
4036.7069,-0.002125
4038.5705,-0.001918
4040.4342,-0.002181
4042.2979,-0.002122
4044.1616,-0.002295
4046.0252,-0.002353
4047.8889,-0.001920
4049.7526,-0.001954
4051.6162,-0.002179
4053.4799,-0.001792
4055.3436,-0.001788
4057.2072,-0.002467
4059.0709,-0.002496
4060.9346,-0.002404
4062.7982,-0.002264
4064.6619,-0.002006
4066.5256,-0.001959
4068.3892,-0.001642
4070.2529,-0.001576
4072.1166,-0.002246
4073.9803,-0.002183
4075.8439,-0.001706
4077.7076,-0.001928
4079.5713,-0.002000
4081.4349,-0.001483
4083.2986,-0.001460
4085.1623,-0.002550
4087.0259,-0.002919
4088.8896,-0.002216
4090.7533,-0.001996
4092.6169,-0.002145
4094.4806,-0.001816
4096.3443,-0.000996
4098.2080,-0.000958
4100.0716,-0.001202
