Wavenumber,Intensity
650.4205,0.001328
652.2841,0.000334
654.1478,0.000330
656.0115,-0.000002
657.8751,0.000584
659.7388,0.001235
661.6025,0.000090
663.4661,0.000605
665.3298,0.002619
667.1935,0.004434
669.0571,0.003572
670.9208,0.001558
672.7845,0.001392
674.6481,0.001764
676.5118,0.001460
678.3755,0.001039
680.2392,0.001330
682.1028,0.001367
683.9665,0.001514
685.8302,0.001932
687.6938,0.001638
689.5575,0.001262
691.4212,0.000946
693.2848,0.001162
695.1485,0.001739
697.0122,0.001682
698.8758,0.001490
700.7395,0.000915
702.6032,0.000459
704.4669,0.000425
706.3305,0.000850
708.1942,0.000834
710.0579,0.000254
711.9215,-0.000105
713.7852,-0.000209
715.6489,0.000270
717.5125,0.001069
719.3762,0.001498
721.2399,0.001326
723.1035,0.000830
724.9672,0.000527
726.8309,0.000411
728.6945,0.000050
730.5582,0.000219
732.4219,0.000799
734.2856,0.000933
736.1492,0.000856
738.0129,0.000905
739.8766,0.000900
741.7402,0.000548
743.6039,0.000429
745.4676,0.000856
747.3312,0.000876
749.1949,0.000450
751.0586,0.000439
752.9222,0.000845
754.7859,0.000893
756.6496,0.000679
758.5132,0.000901
760.3769,0.001071
762.2406,0.000855
764.1043,0.000931
765.9679,0.001090
767.8316,0.000793
769.6953,0.000418
771.5589,0.000479
773.4226,0.000828
775.2863,0.000921
777.1499,0.000975
779.0136,0.001111
780.8773,0.001138
782.7409,0.001004
784.6046,0.001009
786.4683,0.000886
788.3320,0.000716
790.1956,0.000708
792.0593,0.000878
793.9230,0.001219
795.7866,0.001329
797.6503,0.001407
799.5140,0.001320
801.3776,0.000914
803.2413,0.000866
805.1050,0.001137
806.9686,0.001097
808.8323,0.000840
810.6960,0.000658
812.5596,0.000634
814.4233,0.000746
816.2870,0.000882
818.1507,0.000763
820.0143,0.000527
821.8780,0.000286
823.7417,0.000314
825.6053,0.000658
827.4690,0.000698
829.3327,0.000501
831.1963,0.000358
833.0600,0.000217
834.9237,0.000200
836.7873,0.000275
838.6510,0.000139
840.5147,0.000048
842.3784,0.000173
844.2420,0.000167
846.1057,0.000144
847.9694,0.000345
849.8330,0.000468
851.6967,0.000511
853.5604,0.000384
855.4240,0.000275
857.2877,0.000430
859.1514,0.000406
861.0150,0.000196
862.8787,0.000154
864.7424,0.000300
866.6060,0.000273
868.4697,0.000209
870.3334,0.000390
872.1971,0.000521
874.0607,0.000468
875.9244,0.000610
877.7881,0.000799
879.6517,0.000665
881.5154,0.000438
883.3791,0.000428
885.2427,0.000464
887.1064,0.000295
888.9701,0.000327
890.8337,0.000527
892.6974,0.000632
894.5611,0.000700
896.4247,0.000727
898.2884,0.000723
900.1521,0.000774
902.0158,0.000761
903.8794,0.000680
905.7431,0.000631
907.6068,0.000630
909.4704,0.000714
911.3341,0.000737
913.1978,0.000760
915.0614,0.000900
916.9251,0.000915
918.7888,0.000864
920.6524,0.000975
922.5161,0.001049
924.3798,0.001042
926.2435,0.001049
928.1071,0.001013
929.9708,0.000980
931.8345,0.001017
933.6981,0.000994
935.5618,0.000877
937.4255,0.000832
939.2891,0.000953
941.1528,0.001170
943.0165,0.001314
944.8801,0.001273
946.7438,0.001276
948.6075,0.001414
950.4711,0.001379
952.3348,0.001228
954.1985,0.001183
956.0622,0.001274
957.9258,0.001349
959.7895,0.001209
961.6532,0.001026
963.5168,0.001063
965.3805,0.001129
967.2442,0.001123
969.1078,0.001162
970.9715,0.001118
972.8352,0.001089
974.6988,0.001081
976.5625,0.001104
978.4262,0.001206
980.2899,0.001298
982.1535,0.001344
984.0172,0.001305
985.8809,0.001329
987.7445,0.001386
989.6082,0.001397
991.4719,0.001473
993.3355,0.001516
995.1992,0.001526
997.0629,0.001651
998.9265,0.001702
1000.7902,0.001690
1002.6539,0.001774
1004.5175,0.001860
1006.3812,0.001888
1008.2449,0.001980
1010.1086,0.002057
1011.9722,0.002095
1013.8359,0.002131
1015.6996,0.002096
1017.5632,0.002128
1019.4269,0.002256
1021.2906,0.002373
1023.1542,0.002456
1025.0179,0.002454
1026.8816,0.002466
1028.7452,0.002495
1030.6089,0.002529
1032.4726,0.002566
1034.3362,0.002624
1036.1999,0.002711
1038.0636,0.002695
1039.9273,0.002737
1041.7909,0.002860
1043.6546,0.002878
1045.5183,0.002844
1047.3819,0.002796
1049.2456,0.002792
1051.1093,0.002879
1052.9729,0.002896
1054.8366,0.002843
1056.7003,0.002845
1058.5639,0.002844
1060.4276,0.002820
1062.2913,0.002877
1064.1550,0.002961
1066.0186,0.003000
1067.8823,0.003071
1069.7460,0.003106
1071.6096,0.003125
1073.4733,0.003078
1075.3370,0.002946
1077.2006,0.002925
1079.0643,0.002936
1080.9280,0.002920
1082.7916,0.002862
1084.6553,0.002776
1086.5190,0.002752
1088.3826,0.002712
1090.2463,0.002686
1092.1100,0.002683
1093.9737,0.002598
1095.8373,0.002510
1097.7010,0.002426
1099.5647,0.002359
1101.4283,0.002363
1103.2920,0.002327
1105.1557,0.002234
1107.0193,0.002150
1108.8830,0.002072
1110.7467,0.001968
1112.6103,0.001862
1114.4740,0.001738
1116.3377,0.001756
1118.2014,0.001881
1120.0650,0.001805
1121.9287,0.001686
1123.7924,0.001720
1125.6560,0.001676
1127.5197,0.001524
1129.3834,0.001383
1131.2470,0.001287
1133.1107,0.001245
1134.9744,0.001197
1136.8380,0.001172
1138.7017,0.001209
1140.5654,0.001206
1142.4290,0.001159
1144.2927,0.001065
1146.1564,0.000997
1148.0201,0.001004
1149.8837,0.000957
1151.7474,0.000852
1153.6111,0.000720
1155.4747,0.000707
1157.3384,0.000808
1159.2021,0.000787
1161.0657,0.000727
1162.9294,0.000738
1164.7931,0.000732
1166.6567,0.000710
1168.5204,0.000724
1170.3841,0.000687
1172.2477,0.000549
1174.1114,0.000449
1175.9751,0.000469
1177.8388,0.000458
1179.7024,0.000399
1181.5661,0.000363
1183.4298,0.000393
1185.2934,0.000371
1187.1571,0.000318
1189.0208,0.000375
1190.8844,0.000378
1192.7481,0.000312
1194.6118,0.000285
1196.4754,0.000265
1198.3391,0.000199
1200.2028,0.000177
1202.0665,0.000219
1203.9301,0.000253
1205.7938,0.000269
1207.6575,0.000236
1209.5211,0.000139
1211.3848,0.000093
1213.2485,0.000138
1215.1121,0.000144
1216.9758,0.000096
1218.8395,0.000032
1220.7031,0.000010
1222.5668,0.000050
1224.4305,0.000014
1226.2941,-0.000101
1228.1578,-0.000116
1230.0215,-0.000105
1231.8852,-0.000091
1233.7488,-0.000084
1235.6125,-0.000156
1237.4762,-0.000160
1239.3398,-0.000103
1241.2035,-0.000132
1243.0672,-0.000194
1244.9308,-0.000180
1246.7945,-0.000105
1248.6582,-0.000175
1250.5218,-0.000345
1252.3855,-0.000371
1254.2492,-0.000315
1256.1129,-0.000257
1257.9765,-0.000228
1259.8402,-0.000258
1261.7039,-0.000210
1263.5675,-0.000130
1265.4312,-0.000108
1267.2949,-0.000136
1269.1585,-0.000239
1271.0222,-0.000359
1272.8859,-0.000435
1274.7495,-0.000430
1276.6132,-0.000432
1278.4769,-0.000414
1280.3405,-0.000374
1282.2042,-0.000423
1284.0679,-0.000539
1285.9316,-0.000637
1287.7952,-0.000676
1289.6589,-0.000596
1291.5226,-0.000492
1293.3862,-0.000469
1295.2499,-0.000467
1297.1136,-0.000483
1298.9772,-0.000438
1300.8409,-0.000400
1302.7046,-0.000462
1304.5682,-0.000486
1306.4319,-0.000452
1308.2956,-0.000489
1310.1592,-0.000579
1312.0229,-0.000555
1313.8866,-0.000476
1315.7503,-0.000504
1317.6139,-0.000584
1319.4776,-0.000544
1321.3413,-0.000495
1323.2049,-0.000482
1325.0686,-0.000460
1326.9323,-0.000496
1328.7959,-0.000531
1330.6596,-0.000498
1332.5233,-0.000509
1334.3869,-0.000564
1336.2506,-0.000644
1338.1143,-0.000705
1339.9780,-0.000658
1341.8416,-0.000537
1343.7053,-0.000490
1345.5690,-0.000585
1347.4326,-0.000649
1349.2963,-0.000592
1351.1600,-0.000582
1353.0236,-0.000607
1354.8873,-0.000543
1356.7510,-0.000468
1358.6146,-0.000561
1360.4783,-0.000731
1362.3420,-0.000774
1364.2056,-0.000585
1366.0693,-0.000449
1367.9330,-0.000525
1369.7967,-0.000498
1371.6603,-0.000567
1373.5240,-0.000703
1375.3877,-0.000615
1377.2513,-0.000540
1379.1150,-0.000656
1380.9787,-0.000649
1382.8423,-0.000675
1384.7060,-0.000793
1386.5697,-0.000996
1388.4333,-0.000758
1390.2970,-0.000547
1392.1607,-0.000804
1394.0244,-0.000969
1395.8880,-0.000722
1397.7517,-0.000648
1399.6154,-0.000719
1401.4790,-0.000503
1403.3427,-0.000632
1405.2064,-0.000722
1407.0700,-0.000629
1408.9337,-0.000548
1410.7974,-0.000586
1412.6610,-0.000666
1414.5247,-0.000808
1416.3884,-0.001064
1418.2520,-0.001135
1420.1157,-0.000559
1421.9794,-0.000382
1423.8431,-0.000778
1425.7067,-0.000717
1427.5704,-0.000745
1429.4341,-0.000797
1431.2977,-0.000656
1433.1614,-0.000797
1435.0251,-0.001166
1436.8887,-0.001087
1438.7524,-0.000449
1440.6161,-0.000506
1442.4797,-0.000608
1444.3434,-0.000707
1446.2071,-0.000893
1448.0707,-0.000780
1449.9344,-0.000592
1451.7981,-0.000687
1453.6618,-0.001074
1455.5254,-0.001742
1457.3891,-0.001654
1459.2528,-0.000551
1461.1164,-0.000694
1462.9801,-0.001057
1464.8438,-0.001045
1466.7074,-0.000561
1468.5711,-0.000849
1470.4348,-0.001399
1472.2984,-0.001560
1474.1621,-0.000803
1476.0258,-0.000685
1477.8895,-0.000736
1479.7531,-0.000730
1481.6168,-0.000712
1483.4805,-0.000645
1485.3441,-0.000977
1487.2078,-0.001348
1489.0715,-0.001231
1490.9351,-0.000845
1492.7988,-0.000628
1494.6625,-0.001089
1496.5261,-0.001384
1498.3898,-0.000997
1500.2535,-0.000672
1502.1171,-0.000813
1503.9808,-0.001618
1505.8445,-0.002470
1507.7082,-0.001522
1509.5718,-0.000799
1511.4355,-0.001028
1513.2992,-0.001017
1515.1628,-0.001147
1517.0265,-0.001375
1518.8902,-0.001348
1520.7538,-0.001810
1522.6175,-0.001514
1524.4812,-0.001240
1526.3448,-0.001153
1528.2085,-0.000748
1530.0722,-0.001033
1531.9359,-0.001251
1533.7995,-0.001117
1535.6632,-0.000756
1537.5269,-0.001664
1539.3905,-0.002604
1541.2542,-0.001571
1543.1179,-0.001016
1544.9815,-0.000957
1546.8452,-0.000727
1548.7089,-0.000952
1550.5725,-0.001085
1552.4362,-0.000981
1554.2999,-0.001511
1556.1635,-0.001971
1558.0272,-0.002820
1559.8909,-0.001308
1561.7546,-0.000171
1563.6182,-0.000768
1565.4819,-0.000985
1567.3456,-0.001017
1569.2092,-0.001158
1571.0729,-0.000681
1572.9366,-0.000834
1574.8002,-0.001485
1576.6639,-0.001120
1578.5276,-0.000473
1580.3912,-0.000746
1582.2549,-0.000824
1584.1186,-0.000841
1585.9822,-0.000878
1587.8459,-0.000758
1589.7096,-0.000676
1591.5733,-0.000573
1593.4369,-0.000715
1595.3006,-0.000791
1597.1643,-0.000684
1599.0279,-0.000753
1600.8916,-0.001024
1602.7553,-0.000893
1604.6189,-0.000755
1606.4826,-0.000798
1608.3463,-0.000739
1610.2099,-0.000498
1612.0736,-0.000758
1613.9373,-0.001252
1615.8010,-0.001665
1617.6646,-0.001132
1619.5283,-0.000779
1621.3920,-0.001220
1623.2556,-0.001329
1625.1193,-0.000808
1626.9830,-0.000992
1628.8466,-0.001064
1630.7103,-0.000818
1632.5740,-0.001211
1634.4376,-0.001918
1636.3013,-0.001395
1638.1650,-0.000467
1640.0286,-0.000545
1641.8923,-0.000780
1643.7560,-0.001296
1645.6197,-0.001557
1647.4833,-0.001061
1649.3470,-0.000900
1651.2107,-0.001943
1653.0743,-0.002700
1654.9380,-0.000893
1656.8017,-0.000536
1658.6653,-0.000741
1660.5290,-0.000917
1662.3927,-0.001047
1664.2563,-0.000812
1666.1200,-0.000997
1667.9837,-0.001462
1669.8474,-0.001491
1671.7110,-0.001028
1673.5747,-0.001214
1675.4384,-0.001130
1677.3020,-0.000427
1679.1657,-0.000891
1681.0294,-0.001365
1682.8930,-0.001881
1684.7567,-0.001639
1686.6204,-0.000645
1688.4840,-0.001050
1690.3477,-0.000992
1692.2114,-0.000982
1694.0750,-0.001405
1695.9387,-0.001740
1697.8024,-0.001460
1699.6661,-0.002387
1701.5297,-0.001342
1703.3934,-0.000994
1705.2571,-0.001476
1707.1207,-0.000926
1708.9844,-0.000788
1710.8481,-0.001012
1712.7117,-0.001193
1714.5754,-0.001566
1716.4391,-0.001953
1718.3027,-0.001458
1720.1664,-0.000520
1722.0301,-0.000669
1723.8937,-0.000856
1725.7574,-0.001004
1727.6211,-0.001117
1729.4848,-0.001273
1731.3484,-0.001547
1733.2121,-0.001998
1735.0758,-0.001161
1736.9394,-0.000630
1738.8031,-0.001418
1740.6668,-0.001245
1742.5304,-0.001014
1744.3941,-0.001038
1746.2578,-0.001096
1748.1214,-0.001342
1749.9851,-0.001275
1751.8488,-0.000891
1753.7125,-0.000860
1755.5761,-0.001310
1757.4398,-0.001192
1759.3035,-0.000951
1761.1671,-0.001121
1763.0308,-0.000877
1764.8945,-0.000829
1766.7581,-0.001169
1768.6218,-0.001134
1770.4855,-0.001315
1772.3491,-0.001592
1774.2128,-0.001121
1776.0765,-0.001084
1777.9401,-0.001012
1779.8038,-0.001203
1781.6675,-0.001259
1783.5312,-0.001197
1785.3948,-0.001031
1787.2585,-0.000819
1789.1222,-0.001096
1790.9858,-0.001418
1792.8495,-0.001157
1794.7132,-0.000849
1796.5768,-0.001143
1798.4405,-0.001272
1800.3042,-0.001170
1802.1678,-0.000957
1804.0315,-0.000853
1805.8952,-0.000784
1807.7589,-0.000811
1809.6225,-0.001128
1811.4862,-0.001194
1813.3499,-0.000867
1815.2135,-0.000898
1817.0772,-0.001119
1818.9409,-0.000993
1820.8045,-0.000927
1822.6682,-0.001039
1824.5319,-0.001143
1826.3955,-0.001053
1828.2592,-0.001181
1830.1229,-0.001094
1831.9865,-0.000935
1833.8502,-0.001279
1835.7139,-0.001133
1837.5776,-0.001068
1839.4412,-0.001224
1841.3049,-0.001425
1843.1686,-0.001752
1845.0322,-0.001395
1846.8959,-0.000854
1848.7596,-0.001032
1850.6232,-0.000929
1852.4869,-0.000797
1854.3506,-0.000878
1856.2142,-0.001199
1858.0779,-0.001127
1859.9416,-0.001144
1861.8052,-0.001072
1863.6689,-0.000827
1865.5326,-0.000979
1867.3963,-0.001335
1869.2599,-0.001140
1871.1236,-0.000814
1872.9873,-0.000988
1874.8509,-0.001067
1876.7146,-0.000801
1878.5783,-0.000966
1880.4419,-0.001131
1882.3056,-0.001045
1884.1693,-0.001064
1886.0329,-0.001231
1887.8966,-0.001170
1889.7603,-0.001146
1891.6240,-0.001103
1893.4876,-0.000975
1895.3513,-0.001013
1897.2150,-0.001093
1899.0786,-0.000853
1900.9423,-0.000793
1902.8060,-0.000789
1904.6696,-0.000707
1906.5333,-0.001074
1908.3970,-0.001596
1910.2606,-0.001551
1912.1243,-0.001239
1913.9880,-0.001150
1915.8516,-0.001144
1917.7153,-0.001416
1919.5790,-0.001492
1921.4427,-0.001430
1923.3063,-0.001414
1925.1700,-0.000928
1927.0337,-0.000621
1928.8973,-0.000765
1930.7610,-0.001105
1932.6247,-0.001276
1934.4883,-0.001172
1936.3520,-0.001204
1938.2157,-0.001273
1940.0793,-0.001330
1941.9430,-0.001370
1943.8067,-0.001381
1945.6704,-0.001838
1947.5340,-0.001742
1949.3977,-0.001563
1951.2614,-0.001498
1953.1250,-0.001345
1954.9887,-0.001038
1956.8524,-0.000623
1958.7160,-0.000483
1960.5797,-0.000843
1962.4434,-0.000880
1964.3070,-0.001084
1966.1707,-0.001980
1968.0344,-0.002291
1969.8980,-0.001205
1971.7617,-0.000871
1973.6254,-0.001912
1975.4891,-0.002143
1977.3527,-0.001697
1979.2164,-0.001195
1981.0801,-0.000891
1982.9437,-0.001079
1984.8074,-0.001516
1986.6711,-0.001738
1988.5347,-0.001172
1990.3984,-0.001456
1992.2621,-0.001771
1994.1257,-0.001567
1995.9894,-0.001328
1997.8531,-0.001649
1999.7167,-0.002036
2001.5804,-0.001612
2003.4441,-0.001704
2005.3078,-0.001766
2007.1714,-0.001830
2009.0351,-0.001887
2010.8988,-0.001352
2012.7624,-0.001320
2014.6261,-0.001541
2016.4898,-0.001295
2018.3534,-0.000570
2020.2171,-0.000678
2022.0808,-0.000983
2023.9444,-0.001039
2025.8081,-0.001315
2027.6718,-0.001424
2029.5355,-0.000933
2031.3991,-0.000708
2033.2628,-0.000984
2035.1265,-0.001070
2036.9901,-0.000907
2038.8538,-0.001072
2040.7175,-0.001036
2042.5811,-0.000957
2044.4448,-0.001095
2046.3085,-0.001120
2048.1721,-0.000878
2050.0358,-0.000851
2051.8995,-0.000974
2053.7631,-0.001091
2055.6268,-0.001151
2057.4905,-0.001103
2059.3542,-0.001167
2061.2178,-0.001043
2063.0815,-0.001110
2064.9452,-0.001520
2066.8088,-0.001219
2068.6725,-0.000916
2070.5362,-0.001155
2072.3998,-0.001210
2074.2635,-0.001066
2076.1272,-0.000893
2077.9908,-0.000790
2079.8545,-0.000939
2081.7182,-0.001148
2083.5819,-0.001212
2085.4455,-0.001737
2087.3092,-0.001870
2089.1729,-0.001593
2091.0365,-0.001622
2092.9002,-0.001446
2094.7639,-0.001061
2096.6275,-0.001032
2098.4912,-0.000918
2100.3549,-0.000771
2102.2185,-0.001002
2104.0822,-0.001097
2105.9459,-0.001066
2107.8095,-0.001304
2109.6732,-0.001489
2111.5369,-0.001332
2113.4006,-0.001402
2115.2642,-0.001806
2117.1279,-0.001648
2118.9916,-0.001370
2120.8552,-0.001423
2122.7189,-0.001423
2124.5826,-0.001295
2126.4462,-0.001092
2128.3099,-0.000858
2130.1736,-0.001195
2132.0372,-0.001431
2133.9009,-0.001229
2135.7646,-0.001335
2137.6282,-0.001940
2139.4919,-0.001991
2141.3556,-0.001332
2143.2193,-0.001442
2145.0829,-0.002218
2146.9466,-0.002194
2148.8103,-0.001302
2150.6739,-0.001511
2152.5376,-0.001871
2154.4013,-0.000922
2156.2649,-0.000562
2158.1286,-0.001623
2159.9923,-0.001566
2161.8559,-0.000714
2163.7196,-0.000945
2165.5833,-0.001922
2167.4470,-0.002573
2169.3106,-0.002586
2171.1743,-0.002459
2173.0380,-0.001932
2174.9016,-0.001806
2176.7653,-0.002369
2178.6290,-0.002374
2180.4926,-0.001772
2182.3563,-0.001278
2184.2200,-0.000998
2186.0836,-0.000842
2187.9473,-0.000676
2189.8110,-0.000515
2191.6746,-0.001263
2193.5383,-0.001787
2195.4020,-0.001841
2197.2657,-0.001957
2199.1293,-0.001861
2200.9930,-0.001795
2202.8567,-0.001828
2204.7203,-0.001775
2206.5840,-0.001592
2208.4477,-0.001097
2210.3113,-0.000830
2212.1750,-0.000987
2214.0387,-0.001114
2215.9023,-0.000953
2217.7660,-0.001701
2219.6297,-0.001886
2221.4934,-0.001207
2223.3570,-0.001489
2225.2207,-0.001579
2227.0844,-0.001029
2228.9480,-0.001104
2230.8117,-0.001555
2232.6754,-0.001266
2234.5390,-0.001430
2236.4027,-0.001788
2238.2664,-0.001676
2240.1300,-0.001284
2241.9937,-0.001066
2243.8574,-0.001232
2245.7210,-0.001236
2247.5847,-0.001787
2249.4484,-0.001773
2251.3121,-0.001601
2253.1757,-0.001772
2255.0394,-0.001239
2256.9031,-0.000690
2258.7667,-0.000932
2260.6304,-0.001456
2262.4941,-0.001287
2264.3577,-0.001334
2266.2214,-0.001642
2268.0851,-0.001403
2269.9487,-0.001023
2271.8124,-0.001018
2273.6761,-0.001290
2275.5397,-0.001163
2277.4034,-0.001004
2279.2671,-0.001128
2281.1308,-0.001202
2282.9944,-0.001282
2284.8581,-0.001017
2286.7218,-0.000773
2288.5854,-0.000999
2290.4491,-0.001364
2292.3128,-0.001534
2294.1764,-0.001414
2296.0401,-0.001421
2297.9038,-0.001290
2299.7674,-0.000902
2301.6311,-0.000915
2303.4948,-0.001078
2305.3585,-0.001073
2307.2221,-0.000935
2309.0858,-0.001043
2310.9495,-0.000932
2312.8131,-0.000258
2314.6768,0.000137
2316.5405,-0.000202
2318.4041,-0.000070
2320.2678,0.000562
2322.1315,0.000686
2323.9951,0.000746
2325.8588,0.000836
2327.7225,0.000777
2329.5861,0.001046
2331.4498,0.001054
2333.3135,0.000979
2335.1772,0.001266
2337.0408,0.001476
2338.9045,0.001507
2340.7682,0.001439
2342.6318,0.001535
2344.4955,0.001212
2346.3592,0.000756
2348.2228,0.000311
2350.0865,-0.000034
2351.9502,0.000401
2353.8138,0.001283
2355.6775,0.001901
2357.5412,0.002283
2359.4049,0.002487
2361.2685,0.002458
2363.1322,0.002092
2364.9959,0.002200
2366.8595,0.002145
2368.7232,0.001508
2370.5869,0.001611
2372.4505,0.001731
2374.3142,0.000923
2376.1779,0.000072
2378.0415,-0.000494
2379.9052,-0.000909
2381.7689,-0.001338
2383.6325,-0.001440
2385.4962,-0.001362
2387.3599,-0.001259
2389.2236,-0.001613
2391.0872,-0.001890
2392.9509,-0.001741
2394.8146,-0.001894
2396.6782,-0.002182
2398.5419,-0.001879
2400.4056,-0.001671
2402.2692,-0.001701
2404.1329,-0.001609
2405.9966,-0.001443
2407.8602,-0.001447
2409.7239,-0.001348
2411.5876,-0.001502
2413.4512,-0.001750
2415.3149,-0.001846
2417.1786,-0.001665
2419.0423,-0.001546
2420.9059,-0.001911
2422.7696,-0.001995
2424.6333,-0.001655
2426.4969,-0.001444
2428.3606,-0.001630
2430.2243,-0.001854
2432.0879,-0.001444
2433.9516,-0.001285
2435.8153,-0.001570
2437.6789,-0.001483
2439.5426,-0.001695
2441.4063,-0.002220
2443.2700,-0.002097
2445.1336,-0.001660
2446.9973,-0.001483
2448.8610,-0.001449
2450.7246,-0.001529
2452.5883,-0.001730
2454.4520,-0.002134
2456.3156,-0.002216
2458.1793,-0.001691
2460.0430,-0.001323
2461.9066,-0.001338
2463.7703,-0.001518
2465.6340,-0.001613
2467.4976,-0.001642
2469.3613,-0.001548
2471.2250,-0.001713
2473.0887,-0.001953
2474.9523,-0.002087
2476.8160,-0.001769
2478.6797,-0.001388
2480.5433,-0.001654
2482.4070,-0.001837
2484.2707,-0.001664
2486.1343,-0.001646
2487.9980,-0.001917
2489.8617,-0.001985
2491.7253,-0.001674
2493.5890,-0.001572
2495.4527,-0.002004
2497.3164,-0.002165
2499.1800,-0.001881
2501.0437,-0.001657
2502.9074,-0.001406
2504.7710,-0.001200
2506.6347,-0.001400
2508.4984,-0.001705
2510.3620,-0.001697
2512.2257,-0.001631
2514.0894,-0.001655
2515.9530,-0.001866
2517.8167,-0.002086
2519.6804,-0.002015
2521.5440,-0.001755
2523.4077,-0.001864
2525.2714,-0.001977
2527.1351,-0.001887
2528.9987,-0.001747
2530.8624,-0.001514
2532.7261,-0.001269
2534.5897,-0.001409
2536.4534,-0.001580
2538.3171,-0.001636
2540.1807,-0.001483
2542.0444,-0.001500
2543.9081,-0.001809
2545.7717,-0.002037
2547.6354,-0.001910
2549.4991,-0.001544
2551.3627,-0.001483
2553.2264,-0.001811
2555.0901,-0.002219
2556.9538,-0.002018
2558.8174,-0.001502
2560.6811,-0.001604
2562.5448,-0.001567
2564.4084,-0.001419
2566.2721,-0.001726
2568.1358,-0.001910
2569.9994,-0.001990
2571.8631,-0.001913
2573.7268,-0.001508
2575.5904,-0.001382
2577.4541,-0.001920
2579.3178,-0.002208
2581.1815,-0.002016
2583.0451,-0.001944
2584.9088,-0.001692
2586.7725,-0.001711
2588.6361,-0.001809
2590.4998,-0.001541
2592.3635,-0.001524
2594.2271,-0.001734
2596.0908,-0.001501
2597.9545,-0.001314
2599.8181,-0.001736
2601.6818,-0.002120
2603.5455,-0.002164
2605.4091,-0.002133
2607.2728,-0.002062
2609.1365,-0.001922
2611.0002,-0.001635
2612.8638,-0.001321
2614.7275,-0.001469
2616.5912,-0.001788
2618.4548,-0.001854
2620.3185,-0.001822
2622.1822,-0.001794
2624.0458,-0.001696
2625.9095,-0.002024
2627.7732,-0.002298
2629.6368,-0.001966
2631.5005,-0.001621
2633.3642,-0.001289
2635.2279,-0.001183
2637.0915,-0.001643
2638.9552,-0.002026
2640.8189,-0.001829
2642.6825,-0.001651
2644.5462,-0.001791
2646.4099,-0.001664
2648.2735,-0.001639
2650.1372,-0.001738
2652.0009,-0.001746
2653.8645,-0.001699
2655.7282,-0.001806
2657.5919,-0.001950
2659.4555,-0.001937
2661.3192,-0.002007
2663.1829,-0.002063
2665.0466,-0.001901
2666.9102,-0.001836
2668.7739,-0.002157
2670.6376,-0.002119
2672.5012,-0.001774
2674.3649,-0.001498
2676.2286,-0.001521
2678.0922,-0.001730
2679.9559,-0.001961
2681.8196,-0.002103
2683.6832,-0.001939
2685.5469,-0.001784
2687.4106,-0.001877
2689.2742,-0.002226
2691.1379,-0.002331
2693.0016,-0.002125
2694.8653,-0.002042
2696.7289,-0.002119
2698.5926,-0.002156
2700.4563,-0.002038
2702.3199,-0.001995
2704.1836,-0.001909
2706.0473,-0.002054
2707.9109,-0.002293
2709.7746,-0.002087
2711.6383,-0.001858
2713.5019,-0.001936
2715.3656,-0.002024
2717.2293,-0.002225
2719.0930,-0.002304
2720.9566,-0.002105
2722.8203,-0.002039
2724.6840,-0.001987
2726.5476,-0.001932
2728.4113,-0.002026
2730.2750,-0.001950
2732.1386,-0.001890
2734.0023,-0.002026
2735.8660,-0.002107
2737.7296,-0.001863
2739.5933,-0.001833
2741.4570,-0.002086
2743.3206,-0.002236
2745.1843,-0.002317
2747.0480,-0.002278
2748.9117,-0.001952
2750.7753,-0.001777
2752.6390,-0.001940
2754.5027,-0.002158
2756.3663,-0.002385
2758.2300,-0.002324
2760.0937,-0.002009
2761.9573,-0.002012
2763.8210,-0.001984
2765.6847,-0.001820
2767.5483,-0.001821
2769.4120,-0.001924
2771.2757,-0.001948
2773.1394,-0.001829
2775.0030,-0.001916
2776.8667,-0.002305
2778.7304,-0.002475
2780.5940,-0.002037
2782.4577,-0.001651
2784.3214,-0.001713
2786.1850,-0.001876
2788.0487,-0.001999
2789.9124,-0.002088
2791.7760,-0.001928
2793.6397,-0.001999
2795.5034,-0.002228
2797.3670,-0.001937
2799.2307,-0.001925
2801.0944,-0.002134
2802.9581,-0.001842
2804.8217,-0.001863
2806.6854,-0.002397
2808.5491,-0.002253
2810.4127,-0.001864
2812.2764,-0.001979
2814.1401,-0.002046
2816.0037,-0.002028
2817.8674,-0.002396
2819.7311,-0.002657
2821.5947,-0.002323
2823.4584,-0.001969
2825.3221,-0.002000
2827.1857,-0.001863
2829.0494,-0.001817
2830.9131,-0.002139
2832.7768,-0.002473
2834.6404,-0.002356
2836.5041,-0.002158
2838.3678,-0.002073
2840.2314,-0.002113
2842.0951,-0.002266
2843.9588,-0.002301
2845.8224,-0.002201
2847.6861,-0.002177
2849.5498,-0.002027
2851.4134,-0.001992
2853.2771,-0.001943
2855.1408,-0.002087
2857.0045,-0.002317
2858.8681,-0.002174
2860.7318,-0.002284
2862.5955,-0.002320
2864.4591,-0.001784
2866.3228,-0.001607
2868.1865,-0.001719
2870.0501,-0.001940
2871.9138,-0.002276
2873.7775,-0.002205
2875.6411,-0.002063
2877.5048,-0.002246
2879.3685,-0.002255
2881.2321,-0.001944
2883.0958,-0.001720
2884.9595,-0.001747
2886.8232,-0.001785
2888.6868,-0.001809
2890.5505,-0.001828
2892.4142,-0.001897
2894.2778,-0.002231
2896.1415,-0.002316
2898.0052,-0.001965
2899.8688,-0.002034
2901.7325,-0.002188
2903.5962,-0.002245
2905.4598,-0.002356
2907.3235,-0.002312
2909.1872,-0.002008
2911.0509,-0.001800
2912.9145,-0.001982
2914.7782,-0.002259
2916.6419,-0.002479
2918.5055,-0.002318
2920.3692,-0.002060
2922.2329,-0.002064
2924.0965,-0.001981
2925.9602,-0.001855
2927.8239,-0.001823
2929.6875,-0.001857
2931.5512,-0.002032
2933.4149,-0.001917
2935.2785,-0.001559
2937.1422,-0.001558
2939.0059,-0.001794
2940.8696,-0.002097
2942.7332,-0.002062
2944.5969,-0.002024
2946.4606,-0.002476
2948.3242,-0.002718
2950.1879,-0.002421
2952.0516,-0.002043
2953.9152,-0.001966
2955.7789,-0.002063
2957.6426,-0.002023
2959.5062,-0.002096
2961.3699,-0.002041
2963.2336,-0.002026
2965.0972,-0.002036
2966.9609,-0.001520
2968.8246,-0.001399
2970.6883,-0.001991
2972.5519,-0.001943
2974.4156,-0.001869
2976.2793,-0.002573
2978.1429,-0.002741
2980.0066,-0.002367
2981.8703,-0.002171
2983.7339,-0.002330
2985.5976,-0.002447
2987.4613,-0.002244
2989.3249,-0.001955
2991.1886,-0.001663
2993.0523,-0.001769
2994.9160,-0.002091
2996.7796,-0.002243
2998.6433,-0.002263
3000.5070,-0.002299
3002.3706,-0.002181
3004.2343,-0.001776
3006.0980,-0.001782
3007.9616,-0.002231
3009.8253,-0.002309
3011.6890,-0.002239
3013.5526,-0.002441
3015.4163,-0.002706
3017.2800,-0.002657
3019.1436,-0.001938
3021.0073,-0.001141
3022.8710,-0.001573
3024.7347,-0.002300
3026.5983,-0.001983
3028.4620,-0.001669
3030.3257,-0.002224
3032.1893,-0.002842
3034.0530,-0.002611
3035.9167,-0.002106
3037.7803,-0.002068
3039.6440,-0.001960
3041.5077,-0.002005
3043.3713,-0.002390
3045.2350,-0.002241
3047.0987,-0.002081
3048.9624,-0.002139
3050.8260,-0.001974
3052.6897,-0.002202
3054.5534,-0.002490
3056.4170,-0.002223
3058.2807,-0.001937
3060.1444,-0.002102
3062.0080,-0.002293
3063.8717,-0.002099
3065.7354,-0.002139
3067.5990,-0.002467
3069.4627,-0.002316
3071.3264,-0.002326
3073.1900,-0.002268
3075.0537,-0.002075
3076.9174,-0.002015
3078.7811,-0.002131
3080.6447,-0.002241
3082.5084,-0.001518
3084.3721,-0.001158
3086.2357,-0.001897
3088.0994,-0.002386
3089.9631,-0.002398
3091.8267,-0.002212
3093.6904,-0.002066
3095.5541,-0.001800
3097.4177,-0.002256
3099.2814,-0.002824
3101.1451,-0.002229
3103.0087,-0.001768
3104.8724,-0.001856
3106.7361,-0.001884
3108.5998,-0.001948
3110.4634,-0.002322
3112.3271,-0.002731
3114.1908,-0.002671
3116.0544,-0.002301
3117.9181,-0.001935
3119.7818,-0.002099
3121.6454,-0.002465
3123.5091,-0.002500
3125.3728,-0.001881
3127.2364,-0.001368
3129.1001,-0.002155
3130.9638,-0.002759
3132.8275,-0.002045
3134.6911,-0.001730
3136.5548,-0.002239
3138.4185,-0.002497
3140.2821,-0.002256
3142.1458,-0.001744
3144.0095,-0.001548
3145.8731,-0.001953
3147.7368,-0.002367
3149.6005,-0.002369
3151.4641,-0.001973
3153.3278,-0.002070
3155.1915,-0.002427
3157.0551,-0.002208
3158.9188,-0.002284
3160.7825,-0.002880
3162.6462,-0.002694
3164.5098,-0.002174
3166.3735,-0.001996
3168.2372,-0.001544
3170.1008,-0.000891
3171.9645,-0.000893
3173.8282,-0.001582
3175.6918,-0.002523
3177.5555,-0.002781
3179.4192,-0.002333
3181.2828,-0.002237
3183.1465,-0.001942
3185.0102,-0.001860
3186.8739,-0.002222
3188.7375,-0.001896
3190.6012,-0.001976
3192.4649,-0.002727
3194.3285,-0.002491
3196.1922,-0.001704
3198.0559,-0.001455
3199.9195,-0.001814
3201.7832,-0.002395
3203.6469,-0.002400
3205.5105,-0.002184
3207.3742,-0.002284
3209.2379,-0.001920
3211.1015,-0.001800
3212.9652,-0.002162
3214.8289,-0.001437
3216.6926,-0.001085
3218.5562,-0.002076
3220.4199,-0.002222
3222.2836,-0.001302
3224.1472,-0.001333
3226.0109,-0.002209
3227.8746,-0.002896
3229.7382,-0.003044
3231.6019,-0.002613
3233.4656,-0.001896
3235.3292,-0.002041
3237.1929,-0.002091
3239.0566,-0.001621
3240.9202,-0.001557
3242.7839,-0.001538
3244.6476,-0.002289
3246.5113,-0.003013
3248.3749,-0.001942
3250.2386,-0.001230
3252.1023,-0.001734
3253.9659,-0.002260
3255.8296,-0.002390
3257.6933,-0.002627
3259.5569,-0.002783
3261.4206,-0.002746
3263.2843,-0.002240
3265.1479,-0.001375
3267.0116,-0.001688
3268.8753,-0.002560
3270.7390,-0.002815
3272.6026,-0.002650
3274.4663,-0.001791
3276.3300,-0.001343
3278.1936,-0.002271
3280.0573,-0.002917
3281.9210,-0.002369
3283.7846,-0.001989
3285.6483,-0.001735
3287.5120,-0.001595
3289.3756,-0.001916
3291.2393,-0.002734
3293.1030,-0.002312
3294.9666,-0.001708
3296.8303,-0.001941
3298.6940,-0.002272
3300.5577,-0.002356
3302.4213,-0.002587
3304.2850,-0.002826
3306.1487,-0.002663
3308.0123,-0.001704
3309.8760,-0.002013
3311.7397,-0.002923
3313.6033,-0.001987
3315.4670,-0.000463
3317.3307,-0.000680
3319.1943,-0.000750
3321.0580,-0.000746
3322.9217,-0.001525
3324.7854,-0.002438
3326.6490,-0.003695
3328.5127,-0.003512
3330.3764,-0.002206
3332.2400,-0.002259
3334.1037,-0.002800
3335.9674,-0.002168
3337.8310,-0.001752
3339.6947,-0.002436
3341.5584,-0.003253
3343.4220,-0.003099
3345.2857,-0.002241
3347.1494,-0.002054
3349.0130,-0.001639
3350.8767,-0.000852
3352.7404,-0.000994
3354.6041,-0.001300
3356.4677,-0.001248
3358.3314,-0.001917
3360.1951,-0.002970
3362.0587,-0.002952
3363.9224,-0.002822
3365.7861,-0.002608
3367.6497,-0.001861
3369.5134,-0.001296
3371.3771,-0.000868
3373.2407,-0.001242
3375.1044,-0.002210
3376.9681,-0.002076
3378.8317,-0.001935
3380.6954,-0.001875
3382.5591,-0.001807
3384.4228,-0.002473
3386.2864,-0.002509
3388.1501,-0.001723
3390.0138,-0.001316
3391.8774,-0.002280
3393.7411,-0.003004
3395.6048,-0.002803
3397.4684,-0.002625
3399.3321,-0.003171
3401.1958,-0.002849
3403.0594,-0.002660
3404.9231,-0.002614
3406.7868,-0.001941
3408.6505,-0.001448
3410.5141,-0.001315
3412.3778,-0.001195
3414.2415,-0.001588
3416.1051,-0.001692
3417.9688,-0.001697
3419.8325,-0.001794
3421.6961,-0.001871
3423.5598,-0.001640
3425.4235,-0.002630
3427.2871,-0.002870
3429.1508,-0.001791
3431.0145,-0.002244
3432.8781,-0.002923
3434.7418,-0.002594
3436.6055,-0.001837
3438.4692,-0.001741
3440.3328,-0.002766
3442.1965,-0.002971
3444.0602,-0.001982
3445.9238,-0.001186
3447.7875,-0.002589
3449.6512,-0.003715
3451.5148,-0.003693
3453.3785,-0.002729
3455.2422,-0.002140
3457.1058,-0.002615
3458.9695,-0.001148
3460.8332,-0.000166
3462.6969,-0.001562
3464.5605,-0.003039
3466.4242,-0.003738
3468.2879,-0.003686
3470.1515,-0.002249
3472.0152,-0.001433
3473.8789,-0.001954
3475.7425,-0.002327
3477.6062,-0.003195
3479.4699,-0.003533
3481.3335,-0.002154
3483.1972,-0.001985
3485.0609,-0.002305
3486.9245,-0.002113
3488.7882,-0.002656
3490.6519,-0.002078
3492.5156,-0.001837
3494.3792,-0.000688
3496.2429,-0.000428
3498.1066,-0.001659
3499.9702,-0.002715
3501.8339,-0.002558
3503.6976,-0.000698
3505.5612,-0.000251
3507.4249,-0.001963
3509.2886,-0.003344
3511.1522,-0.003706
3513.0159,-0.002941
3514.8796,-0.002327
3516.7432,-0.003377
3518.6069,-0.003497
3520.4706,-0.002154
3522.3343,-0.002480
3524.1979,-0.002533
3526.0616,-0.001594
3527.9253,-0.000914
3529.7889,-0.000913
3531.6526,-0.001136
3533.5163,-0.002596
3535.3799,-0.003440
3537.2436,-0.002809
3539.1073,-0.001600
3540.9709,-0.001889
3542.8346,-0.002401
3544.6983,-0.002695
3546.5620,-0.002798
3548.4256,-0.002162
3550.2893,-0.001413
3552.1530,-0.001783
3554.0166,-0.002815
3555.8803,-0.002853
3557.7440,-0.001258
3559.6076,-0.001737
3561.4713,-0.002918
3563.3350,-0.002333
3565.1986,-0.001436
3567.0623,-0.001148
3568.9260,-0.001894
3570.7896,-0.002664
3572.6533,-0.001532
3574.5170,-0.000391
3576.3807,-0.001262
3578.2443,-0.002444
3580.1080,-0.002508
3581.9717,-0.002142
3583.8353,-0.000640
3585.6990,-0.000446
3587.5627,-0.001292
3589.4263,-0.001920
3591.2900,-0.002442
3593.1537,-0.002764
3595.0173,-0.002825
3596.8810,-0.001541
3598.7447,-0.000538
3600.6084,-0.001680
3602.4720,-0.002747
3604.3357,-0.002536
3606.1994,-0.001846
3608.0630,-0.001145
3609.9267,-0.000846
3611.7904,-0.001182
3613.6540,-0.001548
3615.5177,-0.002385
3617.3814,-0.002883
3619.2450,-0.002396
3621.1087,-0.001333
3622.9724,-0.001532
3624.8360,-0.001951
3626.6997,-0.002321
3628.5634,-0.003048
3630.4271,-0.002731
3632.2907,-0.001397
3634.1544,-0.001553
3636.0181,-0.001669
3637.8817,-0.001777
3639.7454,-0.002149
3641.6091,-0.002568
3643.4727,-0.003054
3645.3364,-0.002842
3647.2001,-0.002908
3649.0637,-0.002510
3650.9274,-0.001874
3652.7911,-0.001855
3654.6547,-0.002436
3656.5184,-0.003118
3658.3821,-0.002331
3660.2458,-0.001773
3662.1094,-0.001891
3663.9731,-0.001599
3665.8368,-0.001468
3667.7004,-0.001917
3669.5641,-0.002357
3671.4278,-0.002326
3673.2914,-0.002916
3675.1551,-0.003328
3677.0188,-0.002496
3678.8824,-0.001289
3680.7461,-0.001418
3682.6098,-0.002102
3684.4735,-0.003342
3686.3371,-0.003243
3688.2008,-0.003166
3690.0645,-0.003334
3691.9281,-0.001443
3693.7918,-0.001107
3695.6555,-0.001830
3697.5191,-0.002045
3699.3828,-0.002305
3701.2465,-0.002606
3703.1101,-0.001873
3704.9738,-0.001889
3706.8375,-0.002881
3708.7011,-0.003562
3710.5648,-0.002941
3712.4285,-0.002276
3714.2922,-0.001261
3716.1558,-0.001074
3718.0195,-0.001674
3719.8832,-0.002059
3721.7468,-0.002317
3723.6105,-0.002316
3725.4742,-0.002123
3727.3378,-0.001541
3729.2015,-0.001593
3731.0652,-0.002340
3732.9288,-0.002522
3734.7925,-0.002078
3736.6562,-0.002401
3738.5199,-0.001716
3740.3835,-0.001369
3742.2472,-0.002465
3744.1109,-0.002597
3745.9745,-0.002774
3747.8382,-0.002092
3749.7019,-0.002751
3751.5655,-0.002827
3753.4292,-0.001994
3755.2929,-0.000832
3757.1565,-0.001100
3759.0202,-0.002322
3760.8839,-0.002123
3762.7475,-0.001122
3764.6112,-0.001446
3766.4749,-0.002620
3768.3386,-0.002422
3770.2022,-0.002438
3772.0659,-0.002429
3773.9296,-0.002189
3775.7932,-0.001555
3777.6569,-0.000687
3779.5206,-0.001167
3781.3842,-0.001933
3783.2479,-0.001903
3785.1116,-0.001740
3786.9752,-0.002056
3788.8389,-0.001849
3790.7026,-0.001383
3792.5662,-0.001422
3794.4299,-0.002294
3796.2936,-0.002918
3798.1573,-0.002820
3800.0209,-0.002615
3801.8846,-0.002623
3803.7483,-0.001653
3805.6119,-0.001647
3807.4756,-0.002348
3809.3393,-0.001702
3811.2029,-0.001331
3813.0666,-0.002317
3814.9303,-0.002992
3816.7939,-0.002990
3818.6576,-0.002052
3820.5213,-0.002495
3822.3850,-0.002159
3824.2486,-0.000899
3826.1123,-0.002156
3827.9760,-0.002446
3829.8396,-0.001776
3831.7033,-0.001928
3833.5670,-0.001875
3835.4306,-0.001339
3837.2943,-0.001950
3839.1580,-0.002765
3841.0216,-0.002877
3842.8853,-0.002169
3844.7490,-0.001477
3846.6126,-0.001304
3848.4763,-0.001974
3850.3400,-0.002883
3852.2037,-0.003356
3854.0673,-0.003183
3855.9310,-0.001048
3857.7947,-0.000355
3859.6583,-0.001689
3861.5220,-0.002237
3863.3857,-0.002246
3865.2493,-0.002123
3867.1130,-0.002054
3868.9767,-0.001896
3870.8403,-0.002498
3872.7040,-0.001983
3874.5677,-0.001820
3876.4314,-0.001678
3878.2950,-0.001577
3880.1587,-0.002151
3882.0224,-0.002137
3883.8860,-0.002446
3885.7497,-0.002915
3887.6134,-0.002174
3889.4770,-0.001964
3891.3407,-0.002304
3893.2044,-0.002122
3895.0680,-0.002069
3896.9317,-0.001965
3898.7954,-0.001767
3900.6590,-0.001888
3902.5227,-0.002387
3904.3864,-0.002256
3906.2501,-0.001431
3908.1137,-0.000666
3909.9774,-0.000834
3911.8411,-0.001231
3913.7047,-0.001683
3915.5684,-0.002189
3917.4321,-0.002048
3919.2957,-0.002528
3921.1594,-0.002790
3923.0231,-0.001931
3924.8867,-0.001246
3926.7504,-0.000936
3928.6141,-0.001035
3930.4777,-0.001847
3932.3414,-0.002288
3934.2051,-0.002616
3936.0688,-0.002252
3937.9324,-0.001721
3939.7961,-0.001630
3941.6598,-0.001644
3943.5234,-0.001611
3945.3871,-0.001824
3947.2508,-0.002350
3949.1144,-0.002234
3950.9781,-0.000979
3952.8418,-0.000406
3954.7054,-0.001439
3956.5691,-0.002701
3958.4328,-0.002752
3960.2965,-0.002088
3962.1601,-0.001618
3964.0238,-0.001734
3965.8875,-0.001417
3967.7511,-0.001104
3969.6148,-0.001332
3971.4785,-0.002089
3973.3421,-0.001899
3975.2058,-0.001710
3977.0695,-0.002330
3978.9331,-0.002316
3980.7968,-0.001995
3982.6605,-0.001401
3984.5241,-0.000963
3986.3878,-0.001247
3988.2515,-0.001555
3990.1152,-0.001939
3991.9788,-0.001933
3993.8425,-0.001528
3995.7062,-0.001441
3997.5698,-0.001558
3999.4335,-0.001720
4001.2972,-0.002272
4003.1608,-0.002045
4005.0245,-0.000681
4006.8882,-0.000268
4008.7518,-0.001580
4010.6155,-0.002300
4012.4792,-0.002323
4014.3429,-0.002142
4016.2065,-0.001832
4018.0702,-0.002004
4019.9339,-0.002494
4021.7975,-0.001915
4023.6612,-0.001158
4025.5249,-0.001475
4027.3885,-0.002011
4029.2522,-0.002115
4031.1159,-0.001852
4032.9795,-0.000949
4034.8432,-0.000958
4036.7069,-0.001327
4038.5705,-0.001601
4040.4342,-0.001944
4042.2979,-0.001536
4044.1616,-0.001917
4046.0252,-0.002558
4047.8889,-0.002178
4049.7526,-0.001879
4051.6162,-0.001953
4053.4799,-0.002309
4055.3436,-0.001942
4057.2072,-0.000994
4059.0709,-0.001259
4060.9346,-0.001789
4062.7982,-0.001126
4064.6619,-0.001343
4066.5256,-0.002568
4068.3892,-0.002480
4070.2529,-0.001869
4072.1166,-0.002193
4073.9803,-0.002352
4075.8439,-0.001662
4077.7076,-0.000859
4079.5713,-0.001369
4081.4349,-0.002031
4083.2986,-0.002072
4085.1623,-0.002260
4087.0259,-0.001955
4088.8896,-0.001862
4090.7533,-0.002056
4092.6169,-0.002045
4094.4806,-0.002250
4096.3443,-0.002613
4098.2080,-0.002462
4100.0716,-0.002086
4101.9353,-0.001881
4103.7990,-0.001809
4105.6626,-0.001381
4107.5263,-0.000958
4109.3900,-0.001142
4111.2536,-0.001578
4113.1173,-0.001398
4114.9810,-0.001880
4116.8446,-0.001467
4118.7083,-0.001971
4120.5720,-0.002084
4122.4356,-0.000800
4124.2993,-0.000705
4126.1630,-0.000786
4128.0267,-0.000909
4129.8903,-0.001501
4131.7540,-0.001963
4133.6177,-0.002180
4135.4813,-0.002927
4137.3450,-0.003026
4139.2087,-0.002686
4141.0723,-0.002645
4142.9360,-0.002278
4144.7997,-0.001966
4146.6633,-0.001739
4148.5270,-0.002433
4150.3907,-0.002630
4152.2544,-0.001920
4154.1180,-0.001452
4155.9817,-0.001823
4157.8454,-0.001710
4159.7090,-0.001832
4161.5727,-0.002257
4163.4364,-0.001788
4165.3000,-0.001705
4167.1637,-0.001918
4169.0274,-0.001619
4170.8910,-0.001445
4172.7547,-0.001121
4174.6184,-0.001701
4176.4820,-0.002889
4178.3457,-0.002400
4180.2094,-0.001778
4182.0731,-0.002112
4183.9367,-0.002227
4185.8004,-0.001444
4187.6641,-0.000647
4189.5277,-0.000903
4191.3914,-0.001097
4193.2551,-0.001149
4195.1187,-0.001575
4196.9824,-0.001921
4198.8461,-0.001960
4200.7097,-0.002233
4202.5734,-0.002593
4204.4371,-0.002840
4206.3007,-0.002678
4208.1644,-0.001802
4210.0281,-0.001438
4211.8918,-0.000966
4213.7554,-0.001118
4215.6191,-0.001512
4217.4828,-0.001966
4219.3464,-0.001705
4221.2101,-0.001711
4223.0738,-0.001707
4224.9374,-0.001977
4226.8011,-0.001918
4228.6648,-0.001927
4230.5284,-0.001899
4232.3921,-0.001493
4234.2558,-0.001987
4236.1195,-0.002738
4237.9831,-0.001909
4239.8468,-0.001165
4241.7105,-0.001088
4243.5741,-0.000678
4245.4378,-0.001688
4247.3015,-0.002993
4249.1651,-0.002832
4251.0288,-0.001960
4252.8925,-0.001624
4254.7561,-0.001919
4256.6198,-0.002411
4258.4835,-0.002303
4260.3471,-0.001692
4262.2108,-0.000935
4264.0745,-0.001033
4265.9382,-0.001772
4267.8018,-0.001758
4269.6655,-0.001756
4271.5292,-0.002024
4273.3928,-0.002353
4275.2565,-0.002803
4277.1202,-0.001958
4278.9838,-0.001370
4280.8475,-0.001494
4282.7112,-0.002002
4284.5748,-0.002477
4286.4385,-0.001784
4288.3022,-0.001194
4290.1659,-0.001806
4292.0295,-0.001668
4293.8932,-0.001796
4295.7569,-0.001737
4297.6205,-0.002002
4299.4842,-0.002259
4301.3479,-0.002348
4303.2115,-0.002680
4305.0752,-0.002518
4306.9389,-0.002056
4308.8025,-0.001330
4310.6662,-0.001436
4312.5299,-0.001635
4314.3935,-0.001752
4316.2572,-0.001737
4318.1209,-0.001994
4319.9846,-0.003178
4321.8482,-0.002659
4323.7119,-0.002052
4325.5756,-0.002000
4327.4392,-0.002088
4329.3029,-0.002145
4331.1666,-0.001728
4333.0302,-0.001334
4334.8939,-0.001931
4336.7576,-0.001987
4338.6212,-0.001390
4340.4849,-0.001233
4342.3486,-0.001688
4344.2122,-0.002517
4346.0759,-0.002210
4347.9396,-0.001587
4349.8033,-0.001691
4351.6669,-0.002156
4353.5306,-0.002524
4355.3943,-0.001838
4357.2579,-0.000976
4359.1216,-0.001041
4360.9853,-0.001339
4362.8489,-0.001401
4364.7126,-0.000160
4366.5763,-0.000058
4368.4399,-0.001561
4370.3036,-0.003034
4372.1673,-0.003233
4374.0310,-0.002559
4375.8946,-0.001807
4377.7583,-0.000809
4379.6220,-0.001463
4381.4856,-0.002465
4383.3493,-0.002161
4385.2130,-0.002396
4387.0766,-0.003076
4388.9403,-0.002372
4390.8040,-0.002000
4392.6676,-0.001943
4394.5313,-0.001440
4396.3950,-0.000553
4398.2586,0.000353
4400.1223,0.000249
4401.9860,-0.000771
4403.8497,-0.001875
4405.7133,-0.001595
4407.5770,-0.000874
4409.4407,-0.000792
4411.3043,-0.001219
4413.1680,-0.002590
4415.0317,-0.002497
4416.8953,-0.001695
4418.7590,-0.001699
4420.6227,-0.001417
4422.4863,-0.002123
4424.3500,-0.002449
4426.2137,-0.001611
4428.0774,-0.001730
4429.9410,-0.002055
4431.8047,-0.001169
4433.6684,-0.000451
4435.5320,-0.001059
4437.3957,-0.001639
4439.2594,-0.001392
4441.1230,-0.001242
4442.9867,-0.001767
4444.8504,-0.001983
4446.7140,-0.001772
4448.5777,-0.000997
4450.4414,-0.001112
4452.3050,-0.001262
4454.1687,-0.001555
4456.0324,-0.001630
4457.8961,-0.001915
4459.7597,-0.001631
4461.6234,-0.000800
4463.4871,-0.001670
4465.3507,-0.002217
4467.2144,-0.001805
4469.0781,-0.001596
4470.9417,-0.002593
4472.8054,-0.002915
4474.6691,-0.001614
4476.5327,-0.001122
4478.3964,-0.001686
4480.2601,-0.002187
4482.1237,-0.002379
4483.9874,-0.002620
4485.8511,-0.002922
4487.7148,-0.003133
4489.5784,-0.003038
4491.4421,-0.001887
4493.3058,-0.001093
4495.1694,-0.001902
4497.0331,-0.003035
4498.8968,-0.002771
4500.7604,-0.001586
