Wavenumber,Intensity
650.4205,0.208626
652.2841,0.206556
654.1478,0.207498
656.0115,0.205796
657.8751,0.202892
659.7388,0.202883
661.6025,0.204620
663.4661,0.205385
665.3298,0.206843
667.1935,0.206398
669.0571,0.202878
670.9208,0.202988
672.7845,0.203551
674.6481,0.203587
676.5118,0.202228
678.3755,0.200110
680.2392,0.197679
682.1028,0.194696
683.9665,0.191165
685.8302,0.188237
687.6938,0.185251
689.5575,0.181109
691.4212,0.177085
693.2848,0.174139
695.1485,0.171720
697.0122,0.169230
698.8758,0.167335
700.7395,0.167037
702.6032,0.168215
704.4669,0.169509
706.3305,0.170383
708.1942,0.172635
710.0579,0.175516
711.9215,0.177667
713.7852,0.179882
715.6489,0.181682
717.5125,0.183766
719.3762,0.186287
721.2399,0.188393
723.1035,0.189422
724.9672,0.189737
726.8309,0.189495
728.6945,0.188099
730.5582,0.185916
732.4219,0.184485
734.2856,0.183355
736.1492,0.181988
738.0129,0.181305
739.8766,0.181065
741.7402,0.180181
743.6039,0.179454
745.4676,0.179263
747.3312,0.179065
749.1949,0.178851
751.0586,0.178845
752.9222,0.179347
754.7859,0.179918
756.6496,0.180279
758.5132,0.180530
760.3769,0.180741
762.2406,0.180774
764.1043,0.179674
765.9679,0.177563
767.8316,0.175778
769.6953,0.174269
771.5589,0.172621
773.4226,0.171132
775.2863,0.169693
777.1499,0.168209
779.0136,0.167032
780.8773,0.166156
782.7409,0.165525
784.6046,0.165232
786.4683,0.165274
788.3320,0.165891
790.1956,0.166285
792.0593,0.165902
793.9230,0.165806
795.7866,0.166431
797.6503,0.167395
799.5140,0.168395
801.3776,0.169221
803.2413,0.170643
805.1050,0.172661
806.9686,0.174426
808.8323,0.176381
810.6960,0.178399
812.5596,0.180284
814.4233,0.182389
816.2870,0.184074
818.1507,0.184998
820.0143,0.185624
821.8780,0.185941
823.7417,0.186132
825.6053,0.186690
827.4690,0.187725
829.3327,0.189439
831.1963,0.191631
833.0600,0.194437
834.9237,0.197797
836.7873,0.201366
838.6510,0.205307
840.5147,0.209682
842.3784,0.214463
844.2420,0.219693
846.1057,0.225368
847.9694,0.231407
849.8330,0.237500
851.6967,0.243348
853.5604,0.249197
855.4240,0.255139
857.2877,0.261335
859.1514,0.267682
861.0150,0.273796
862.8787,0.279447
864.7424,0.284623
866.6060,0.289562
868.4697,0.294215
870.3334,0.298565
872.1971,0.302732
874.0607,0.306758
875.9244,0.310612
877.7881,0.314447
879.6517,0.318389
881.5154,0.322359
883.3791,0.326700
885.2427,0.331538
887.1064,0.336992
888.9701,0.343027
890.8337,0.349479
892.6974,0.356401
894.5611,0.363316
896.4247,0.370186
898.2884,0.377153
900.1521,0.384193
902.0158,0.391150
903.8794,0.397898
905.7431,0.404373
907.6068,0.410409
909.4704,0.416061
911.3341,0.421637
913.1978,0.426675
915.0614,0.431292
916.9251,0.435875
918.7888,0.440479
920.6524,0.444932
922.5161,0.449074
924.3798,0.453074
926.2435,0.457249
928.1071,0.461401
929.9708,0.465637
931.8345,0.470295
933.6981,0.475230
935.5618,0.479985
937.4255,0.484595
939.2891,0.489121
941.1528,0.493248
943.0165,0.496346
944.8801,0.498290
946.7438,0.499428
948.6075,0.499904
950.4711,0.499288
952.3348,0.497164
954.1985,0.493598
956.0622,0.489446
957.9258,0.484756
959.7895,0.479590
961.6532,0.474451
963.5168,0.469558
965.3805,0.464915
967.2442,0.460495
969.1078,0.456609
970.9715,0.453433
972.8352,0.450659
974.6988,0.448167
976.5625,0.445963
978.4262,0.443922
980.2899,0.441694
982.1535,0.438769
984.0172,0.435022
985.8809,0.430638
987.7445,0.425492
989.6082,0.419426
991.4719,0.412521
993.3355,0.404836
995.1992,0.396551
997.0629,0.387905
998.9265,0.378912
1000.7902,0.369541
1002.6539,0.360057
1004.5175,0.350662
1006.3812,0.341200
1008.2449,0.331572
1010.1086,0.321733
1011.9722,0.311946
1013.8359,0.302270
1015.6996,0.292794
1017.5632,0.283735
1019.4269,0.274986
1021.2906,0.266526
1023.1542,0.258320
1025.0179,0.250577
1026.8816,0.243482
1028.7452,0.236713
1030.6089,0.230223
1032.4726,0.223922
1034.3362,0.217791
1036.1999,0.211986
1038.0636,0.206480
1039.9273,0.201292
1041.7909,0.196395
1043.6546,0.191678
1045.5183,0.187167
1047.3819,0.182949
1049.2456,0.178988
1051.1093,0.175214
1052.9729,0.171681
1054.8366,0.168348
1056.7003,0.165061
1058.5639,0.161872
1060.4276,0.158857
1062.2913,0.156120
1064.1550,0.153680
1066.0186,0.151285
1067.8823,0.148845
1069.7460,0.146382
1071.6096,0.143885
1073.4733,0.141391
1075.3370,0.138790
1077.2006,0.136000
1079.0643,0.133215
1080.9280,0.130490
1082.7916,0.127665
1084.6553,0.124838
1086.5190,0.122053
1088.3826,0.119192
1090.2463,0.116278
1092.1100,0.113308
1093.9737,0.110243
1095.8373,0.107193
1097.7010,0.104260
1099.5647,0.101431
1101.4283,0.098654
1103.2920,0.095858
1105.1557,0.093156
1107.0193,0.090570
1108.8830,0.087998
1110.7467,0.085468
1112.6103,0.083008
1114.4740,0.080714
1116.3377,0.078465
1118.2014,0.076218
1120.0650,0.074134
1121.9287,0.072238
1123.7924,0.070372
1125.6560,0.068543
1127.5197,0.066861
1129.3834,0.065272
1131.2470,0.063768
1133.1107,0.062377
1134.9744,0.061086
1136.8380,0.059790
1138.7017,0.058526
1140.5654,0.057413
1142.4290,0.056364
1144.2927,0.055399
1146.1564,0.054517
1148.0201,0.053655
1149.8837,0.052868
1151.7474,0.052118
1153.6111,0.051240
1155.4747,0.050235
1157.3384,0.049257
1159.2021,0.048263
1161.0657,0.047164
1162.9294,0.046037
1164.7931,0.044829
1166.6567,0.043612
1168.5204,0.042501
1170.3841,0.041302
1172.2477,0.040001
1174.1114,0.038683
1175.9751,0.037371
1177.8388,0.036153
1179.7024,0.034959
1181.5661,0.033721
1183.4298,0.032557
1185.2934,0.031380
1187.1571,0.030089
1189.0208,0.028834
1190.8844,0.027645
1192.7481,0.026477
1194.6118,0.025417
1196.4754,0.024440
1198.3391,0.023448
1200.2028,0.022539
1202.0665,0.021692
1203.9301,0.020796
1205.7938,0.019917
1207.6575,0.019128
1209.5211,0.018488
1211.3848,0.017912
1213.2485,0.017290
1215.1121,0.016751
1216.9758,0.016361
1218.8395,0.015997
1220.7031,0.015611
1222.5668,0.015199
1224.4305,0.014849
1226.2941,0.014596
1228.1578,0.014352
1230.0215,0.014132
1231.8852,0.013979
1233.7488,0.013839
1235.6125,0.013664
1237.4762,0.013418
1239.3398,0.013240
1241.2035,0.013154
1243.0672,0.013038
1244.9308,0.012913
1246.7945,0.012825
1248.6582,0.012741
1250.5218,0.012616
1252.3855,0.012555
1254.2492,0.012542
1256.1129,0.012438
1257.9765,0.012349
1259.8402,0.012294
1261.7039,0.012173
1263.5675,0.012139
1265.4312,0.012134
1267.2949,0.012069
1269.1585,0.012007
1271.0222,0.011997
1272.8859,0.012082
1274.7495,0.012073
1276.6132,0.011973
1278.4769,0.011930
1280.3405,0.011958
1282.2042,0.012024
1284.0679,0.012042
1285.9316,0.012010
1287.7952,0.011907
1289.6589,0.011885
1291.5226,0.011962
1293.3862,0.012115
1295.2499,0.012147
1297.1136,0.012116
1298.9772,0.012136
1300.8409,0.012121
1302.7046,0.012225
1304.5682,0.012327
1306.4319,0.012279
1308.2956,0.012247
1310.1592,0.012380
1312.0229,0.012483
1313.8866,0.012452
1315.7503,0.012426
1317.6139,0.012467
1319.4776,0.012502
1321.3413,0.012494
1323.2049,0.012474
1325.0686,0.012528
1326.9323,0.012714
1328.7959,0.012862
1330.6596,0.012894
1332.5233,0.012953
1334.3869,0.012976
1336.2506,0.012998
1338.1143,0.013115
1339.9780,0.013226
1341.8416,0.013297
1343.7053,0.013356
1345.5690,0.013384
1347.4326,0.013422
1349.2963,0.013512
1351.1600,0.013640
1353.0236,0.013747
1354.8873,0.013804
1356.7510,0.013920
1358.6146,0.014143
1360.4783,0.014364
1362.3420,0.014335
1364.2056,0.014240
1366.0693,0.014419
1367.9330,0.014624
1369.7967,0.014801
1371.6603,0.015096
1373.5240,0.015271
1375.3877,0.015275
1377.2513,0.015412
1379.1150,0.015550
1380.9787,0.015725
1382.8423,0.015961
1384.7060,0.016109
1386.5697,0.016201
1388.4333,0.016283
1390.2970,0.016521
1392.1607,0.016902
1394.0244,0.017094
1395.8880,0.017056
1397.7517,0.017188
1399.6154,0.017195
1401.4790,0.017251
1403.3427,0.017652
1405.2064,0.017803
1407.0700,0.017828
1408.9337,0.018025
1410.7974,0.018136
1412.6610,0.018244
1414.5247,0.018574
1416.3884,0.018930
1418.2520,0.018912
1420.1157,0.018446
1421.9794,0.018394
1423.8431,0.018561
1425.7067,0.018660
1427.5704,0.018837
1429.4341,0.018857
1431.2977,0.018756
1433.1614,0.018885
1435.0251,0.019061
1436.8887,0.018657
1438.7524,0.018249
1440.6161,0.018384
1442.4797,0.018514
1444.3434,0.018571
1446.2071,0.018656
1448.0707,0.018543
1449.9344,0.018436
1451.7981,0.018584
1453.6618,0.018871
1455.5254,0.019038
1457.3891,0.017946
1459.2528,0.017055
1461.1164,0.017373
1462.9801,0.017765
1464.8438,0.017644
1466.7074,0.017219
1468.5711,0.017333
1470.4348,0.017581
1472.2984,0.017331
1474.1621,0.016854
1476.0258,0.016622
1477.8895,0.016523
1479.7531,0.016589
1481.6168,0.016564
1483.4805,0.016505
1485.3441,0.016565
1487.2078,0.016517
1489.0715,0.016220
1490.9351,0.015758
1492.7988,0.015660
1494.6625,0.015955
1496.5261,0.015696
1498.3898,0.015039
1500.2535,0.014815
1502.1171,0.015036
1503.9808,0.015576
1505.8445,0.015626
1507.7082,0.014316
1509.5718,0.014022
1511.4355,0.014311
1513.2992,0.014476
1515.1628,0.014505
1517.0265,0.014202
1518.8902,0.014146
1520.7538,0.014195
1522.6175,0.013631
1524.4812,0.013529
1526.3448,0.013625
1528.2085,0.013605
1530.0722,0.013703
1531.9359,0.013784
1533.7995,0.013487
1535.6632,0.013409
1537.5269,0.013973
1539.3905,0.013768
1541.2542,0.012644
1543.1179,0.012510
1544.9815,0.012467
1546.8452,0.012469
1548.7089,0.012806
1550.5725,0.012999
1552.4362,0.013108
1554.2999,0.013197
1556.1635,0.013461
1558.0272,0.013587
1559.8909,0.011923
1561.7546,0.011689
1563.6182,0.012426
1565.4819,0.012793
1567.3456,0.013068
1569.2092,0.013023
1571.0729,0.012684
1572.9366,0.013095
1574.8002,0.013576
1576.6639,0.013097
1578.5276,0.012987
1580.3912,0.013420
1582.2549,0.013562
1584.1186,0.013684
1585.9822,0.013821
1587.8459,0.014028
1589.7096,0.014195
1591.5733,0.014306
1593.4369,0.014491
1595.3006,0.014705
1597.1643,0.014833
1599.0279,0.015100
1600.8916,0.015544
1602.7553,0.015769
1604.6189,0.016046
1606.4826,0.016597
1608.3463,0.016914
1610.2099,0.017128
1612.0736,0.017611
1613.9373,0.018266
1615.8010,0.018723
1617.6646,0.018547
1619.5283,0.019085
1621.3920,0.019915
1623.2556,0.020135
1625.1193,0.020294
1626.9830,0.020775
1628.8466,0.021105
1630.7103,0.021737
1632.5740,0.022731
1634.4376,0.023375
1636.3013,0.022427
1638.1650,0.021909
1640.0286,0.022664
1641.8923,0.023472
1643.7560,0.024030
1645.6197,0.024081
1647.4833,0.023166
1649.3470,0.023096
1651.2107,0.024577
1653.0743,0.024009
1654.9380,0.021238
1656.8017,0.021711
1658.6653,0.022391
1660.5290,0.022537
1662.3927,0.022137
1664.2563,0.021605
1666.1200,0.021990
1667.9837,0.022407
1669.8474,0.021296
1671.7110,0.020449
1673.5747,0.020716
1675.4384,0.020189
1677.3020,0.019304
1679.1657,0.019517
1681.0294,0.019780
1682.8930,0.019794
1684.7567,0.018183
1686.6204,0.017128
1688.4840,0.017411
1690.3477,0.017132
1692.2114,0.016978
1694.0750,0.017328
1695.9387,0.016819
1697.8024,0.016051
1699.6661,0.016024
1701.5297,0.014728
1703.3934,0.014645
1705.2571,0.014853
1707.1207,0.014433
1708.9844,0.014199
1710.8481,0.014296
1712.7117,0.014353
1714.5754,0.014239
1716.4391,0.013954
1718.3027,0.013127
1720.1664,0.012608
1722.0301,0.012965
1723.8937,0.013264
1725.7574,0.013216
1727.6211,0.013162
1729.4848,0.013265
1731.3484,0.013500
1733.2121,0.013217
1735.0758,0.012101
1736.9394,0.012080
1738.8031,0.012611
1740.6668,0.012517
1742.5304,0.012317
1744.3941,0.012450
1746.2578,0.012625
1748.1214,0.012698
1749.9851,0.012501
1751.8488,0.012124
1753.7125,0.012109
1755.5761,0.012393
1757.4398,0.012361
1759.3035,0.012333
1761.1671,0.012436
1763.0308,0.012320
1764.8945,0.012376
1766.7581,0.012591
1768.6218,0.012672
1770.4855,0.012757
1772.3491,0.012371
1774.2128,0.011886
1776.0765,0.012101
1777.9401,0.012424
1779.8038,0.012466
1781.6675,0.012282
1783.5312,0.012270
1785.3948,0.012286
1787.2585,0.012483
1789.1222,0.012678
1790.9858,0.012639
1792.8495,0.012419
1794.7132,0.012313
1796.5768,0.012492
1798.4405,0.012678
1800.3042,0.012573
1802.1678,0.012387
1804.0315,0.012438
1805.8952,0.012566
1807.7589,0.012684
1809.6225,0.012653
1811.4862,0.012548
1813.3499,0.012435
1815.2135,0.012396
1817.0772,0.012264
1818.9409,0.012207
1820.8045,0.012520
1822.6682,0.012772
1824.5319,0.012624
1826.3955,0.012263
1828.2592,0.012363
1830.1229,0.012410
1831.9865,0.012096
1833.8502,0.012251
1835.7139,0.012614
1837.5776,0.012612
1839.4412,0.012512
1841.3049,0.012640
1843.1686,0.012650
1845.0322,0.012214
1846.8959,0.012066
1848.7596,0.012241
1850.6232,0.012425
1852.4869,0.012657
1854.3506,0.012598
1856.2142,0.012480
1858.0779,0.012439
1859.9416,0.012441
1861.8052,0.012683
1863.6689,0.012605
1865.5326,0.012526
1867.3963,0.012824
1869.2599,0.012703
1871.1236,0.012289
1872.9873,0.012306
1874.8509,0.012465
1876.7146,0.012495
1878.5783,0.012327
1880.4419,0.012416
1882.3056,0.012596
1884.1693,0.012417
1886.0329,0.012351
1887.8966,0.012542
1889.7603,0.012749
1891.6240,0.012808
1893.4876,0.012611
1895.3513,0.012719
1897.2150,0.012863
1899.0786,0.012496
1900.9423,0.012280
1902.8060,0.012575
1904.6696,0.012873
1906.5333,0.012779
1908.3970,0.012919
1910.2606,0.012955
1912.1243,0.012674
1913.9880,0.012697
1915.8516,0.012544
1917.7153,0.012077
1919.5790,0.012178
1921.4427,0.012402
1923.3063,0.012643
1925.1700,0.012788
1927.0337,0.012529
1928.8973,0.012256
1930.7610,0.012709
1932.6247,0.013314
1934.4883,0.013154
1936.3520,0.012238
1938.2157,0.012148
1940.0793,0.012730
1941.9430,0.012721
1943.8067,0.012583
1945.6704,0.012307
1947.5340,0.012455
1949.3977,0.012285
1951.2614,0.011781
1953.1250,0.012151
1954.9887,0.012503
1956.8524,0.012263
1958.7160,0.012094
1960.5797,0.012643
1962.4434,0.013012
1964.3070,0.012752
1966.1707,0.012269
1968.0344,0.012466
1969.8980,0.012687
1971.7617,0.012723
1973.6254,0.012586
1975.4891,0.012179
1977.3527,0.012569
1979.2164,0.012598
1981.0801,0.012013
1982.9437,0.012592
1984.8074,0.013408
1986.6711,0.013201
1988.5347,0.013179
1990.3984,0.013242
1992.2621,0.012644
1994.1257,0.012299
1995.9894,0.012372
1997.8531,0.012771
1999.7167,0.012545
2001.5804,0.012445
2003.4441,0.012842
2005.3078,0.013027
2007.1714,0.013421
2009.0351,0.013323
2010.8988,0.013538
2012.7624,0.013429
2014.6261,0.012482
2016.4898,0.012099
2018.3534,0.012182
2020.2171,0.012400
2022.0808,0.012257
2023.9444,0.012095
2025.8081,0.011801
2027.6718,0.012846
2029.5355,0.013348
2031.3991,0.012448
2033.2628,0.012246
2035.1265,0.012776
2036.9901,0.012763
2038.8538,0.013350
2040.7175,0.013071
2042.5811,0.013022
2044.4448,0.013572
2046.3085,0.013586
2048.1721,0.013521
2050.0358,0.014177
2051.8995,0.014342
2053.7631,0.013450
2055.6268,0.012421
2057.4905,0.012459
2059.3542,0.013311
2061.2178,0.013561
2063.0815,0.013250
2064.9452,0.013400
2066.8088,0.013711
2068.6725,0.013922
2070.5362,0.014143
2072.3998,0.014332
2074.2635,0.013874
2076.1272,0.013581
2077.9908,0.013398
2079.8545,0.013232
2081.7182,0.013632
2083.5819,0.014192
2085.4455,0.014381
2087.3092,0.014322
2089.1729,0.014148
2091.0365,0.014116
2092.9002,0.013488
2094.7639,0.013043
2096.6275,0.013413
2098.4912,0.013897
2100.3549,0.014150
2102.2185,0.014451
2104.0822,0.014469
2105.9459,0.013929
2107.8095,0.013679
2109.6732,0.013607
2111.5369,0.013885
2113.4006,0.014455
2115.2642,0.014434
2117.1279,0.014273
2118.9916,0.014283
2120.8552,0.013879
2122.7189,0.013683
2124.5826,0.013839
2126.4462,0.013917
2128.3099,0.013257
2130.1736,0.012660
2132.0372,0.012709
2133.9009,0.013013
2135.7646,0.013371
2137.6282,0.013429
2139.4919,0.013458
2141.3556,0.013584
2143.2193,0.013725
2145.0829,0.013616
2146.9466,0.013098
2148.8103,0.012550
2150.6739,0.012948
2152.5376,0.013074
2154.4013,0.012824
2156.2649,0.011651
2158.1286,0.011284
2159.9923,0.013395
2161.8559,0.014315
2163.7196,0.014627
2165.5833,0.014972
2167.4470,0.014354
2169.3106,0.014169
2171.1743,0.013987
2173.0380,0.013448
2174.9016,0.013219
2176.7653,0.013668
2178.6290,0.013394
2180.4926,0.012828
2182.3563,0.013141
2184.2200,0.013670
2186.0836,0.014344
2187.9473,0.014371
2189.8110,0.014228
2191.6746,0.014092
2193.5383,0.013989
2195.4020,0.014047
2197.2657,0.013871
2199.1293,0.013968
2200.9930,0.014286
2202.8567,0.013631
2204.7203,0.013482
2206.5840,0.014322
2208.4477,0.014757
2210.3113,0.014869
2212.1750,0.014186
2214.0387,0.014084
2215.9023,0.014448
2217.7660,0.014246
2219.6297,0.014101
2221.4934,0.014017
2223.3570,0.014240
2225.2207,0.014441
2227.0844,0.014991
2228.9480,0.015235
2230.8117,0.014488
2232.6754,0.014312
2234.5390,0.015355
2236.4027,0.015587
2238.2664,0.015206
2240.1300,0.014577
2241.9937,0.014821
2243.8574,0.015264
2245.7210,0.015140
2247.5847,0.014815
2249.4484,0.014980
2251.3121,0.015411
2253.1757,0.015343
2255.0394,0.015170
2256.9031,0.015105
2258.7667,0.015190
2260.6304,0.015350
2262.4941,0.014985
2264.3577,0.014813
2266.2214,0.015271
2268.0851,0.015576
2269.9487,0.015463
2271.8124,0.015228
2273.6761,0.015457
2275.5397,0.015610
2277.4034,0.015733
2279.2671,0.016094
2281.1308,0.015986
2282.9944,0.015721
2284.8581,0.015856
2286.7218,0.016316
2288.5854,0.016493
2290.4491,0.016125
2292.3128,0.015906
2294.1764,0.016080
2296.0401,0.016263
2297.9038,0.016229
2299.7674,0.015991
2301.6311,0.015817
2303.4948,0.015553
2305.3585,0.015773
2307.2221,0.016284
2309.0858,0.016250
2310.9495,0.016183
2312.8131,0.016398
2314.6768,0.016425
2316.5405,0.016527
2318.4041,0.016358
2320.2678,0.016143
2322.1315,0.016268
2323.9951,0.016444
2325.8588,0.016327
2327.7225,0.016192
2329.5861,0.016154
2331.4498,0.016067
2333.3135,0.015884
2335.1772,0.016018
2337.0408,0.016227
2338.9045,0.015955
2340.7682,0.015781
2342.6318,0.015949
2344.4955,0.015855
2346.3592,0.015424
2348.2228,0.015505
2350.0865,0.015997
2351.9502,0.016665
2353.8138,0.016745
2355.6775,0.016452
2357.5412,0.016343
2359.4049,0.015953
2361.2685,0.015585
2363.1322,0.015356
2364.9959,0.015328
2366.8595,0.015529
2368.7232,0.015781
2370.5869,0.015798
2372.4505,0.015706
2374.3142,0.015926
2376.1779,0.015827
2378.0415,0.015695
2379.9052,0.015607
2381.7689,0.015344
2383.6325,0.015389
2385.4962,0.015648
2387.3599,0.015714
2389.2236,0.015749
2391.0872,0.015622
2392.9509,0.015845
2394.8146,0.016162
2396.6782,0.016328
2398.5419,0.016238
2400.4056,0.016032
2402.2692,0.016196
2404.1329,0.016496
2405.9966,0.016386
2407.8602,0.016096
2409.7239,0.016094
2411.5876,0.016178
2413.4512,0.016232
2415.3149,0.016274
2417.1786,0.016332
2419.0423,0.016617
2420.9059,0.016700
2422.7696,0.016407
2424.6333,0.016322
2426.4969,0.016390
2428.3606,0.016254
2430.2243,0.016118
2432.0879,0.016423
2433.9516,0.016237
2435.8153,0.016205
2437.6789,0.016554
2439.5426,0.016633
2441.4063,0.016699
2443.2700,0.016534
2445.1336,0.016621
2446.9973,0.016788
2448.8610,0.016340
2450.7246,0.016216
2452.5883,0.016368
2454.4520,0.016611
2456.3156,0.016928
2458.1793,0.016685
2460.0430,0.016190
2461.9066,0.016182
2463.7703,0.016188
2465.6340,0.015936
2467.4976,0.015996
2469.3613,0.016611
2471.2250,0.016854
2473.0887,0.016714
2474.9523,0.016999
2476.8160,0.016797
2478.6797,0.016547
2480.5433,0.016973
2482.4070,0.016788
2484.2707,0.016186
2486.1343,0.016258
2487.9980,0.016568
2489.8617,0.016566
2491.7253,0.016653
2493.5890,0.016883
2495.4527,0.017136
2497.3164,0.017360
2499.1800,0.017629
2501.0437,0.017320
2502.9074,0.016855
2504.7710,0.016914
2506.6347,0.016928
2508.4984,0.016710
2510.3620,0.016757
2512.2257,0.017284
2514.0894,0.017258
2515.9530,0.017060
2517.8167,0.016767
2519.6804,0.016274
2521.5440,0.016721
2523.4077,0.017066
2525.2714,0.016789
2527.1351,0.016528
2528.9987,0.016459
2530.8624,0.016791
2532.7261,0.016687
2534.5897,0.016808
2536.4534,0.017076
2538.3171,0.016859
2540.1807,0.016717
2542.0444,0.016880
2543.9081,0.016942
2545.7717,0.017041
2547.6354,0.016779
2549.4991,0.016695
2551.3627,0.016984
2553.2264,0.016879
2555.0901,0.016669
2556.9538,0.016804
2558.8174,0.017230
2560.6811,0.017139
2562.5448,0.017152
2564.4084,0.017182
2566.2721,0.016934
2568.1358,0.016726
2569.9994,0.016787
2571.8631,0.017047
2573.7268,0.017335
2575.5904,0.017083
2577.4541,0.016763
2579.3178,0.016981
2581.1815,0.017319
2583.0451,0.017215
2584.9088,0.017741
2586.7725,0.017757
2588.6361,0.017225
2590.4998,0.017001
2592.3635,0.016985
2594.2271,0.016814
2596.0908,0.016790
2597.9545,0.017439
2599.8181,0.017732
2601.6818,0.017677
2603.5455,0.017664
2605.4091,0.017669
2607.2728,0.017331
2609.1365,0.017077
2611.0002,0.017341
2612.8638,0.017615
2614.7275,0.017403
2616.5912,0.017081
2618.4548,0.017184
2620.3185,0.017391
2622.1822,0.017725
2624.0458,0.017630
2625.9095,0.017561
2627.7732,0.017713
2629.6368,0.017881
2631.5005,0.017865
2633.3642,0.017688
2635.2279,0.017885
2637.0915,0.017973
2638.9552,0.017753
2640.8189,0.017599
2642.6825,0.017637
2644.5462,0.017695
2646.4099,0.017513
2648.2735,0.017429
2650.1372,0.017546
2652.0009,0.017628
2653.8645,0.017841
2655.7282,0.018094
2657.5919,0.017918
2659.4555,0.017795
2661.3192,0.017934
2663.1829,0.017799
2665.0466,0.017451
2666.9102,0.017395
2668.7739,0.017476
2670.6376,0.017456
2672.5012,0.017690
2674.3649,0.017847
2676.2286,0.017794
2678.0922,0.017652
2679.9559,0.017663
2681.8196,0.017748
2683.6832,0.017606
2685.5469,0.017670
2687.4106,0.017768
2689.2742,0.017759
2691.1379,0.017936
2693.0016,0.018039
2694.8653,0.017682
2696.7289,0.017532
2698.5926,0.017802
2700.4563,0.017896
2702.3199,0.018021
2704.1836,0.018007
2706.0473,0.018043
2707.9109,0.018075
2709.7746,0.017792
2711.6383,0.017977
2713.5019,0.018260
2715.3656,0.018041
2717.2293,0.017983
2719.0930,0.018104
2720.9566,0.017894
2722.8203,0.017795
2724.6840,0.017872
2726.5476,0.017981
2728.4113,0.018001
2730.2750,0.018154
2732.1386,0.018252
2734.0023,0.018111
2735.8660,0.018267
2737.7296,0.018432
2739.5933,0.018335
2741.4570,0.018081
2743.3206,0.017839
2745.1843,0.017900
2747.0480,0.018260
2748.9117,0.018563
2750.7753,0.018564
2752.6390,0.018391
2754.5027,0.018359
2756.3663,0.018454
2758.2300,0.018347
2760.0937,0.018177
2761.9573,0.018258
2763.8210,0.018299
2765.6847,0.018370
2767.5483,0.018610
2769.4120,0.018524
2771.2757,0.018333
2773.1394,0.018475
2775.0030,0.018561
2776.8667,0.018301
2778.7304,0.018223
2780.5940,0.018443
2782.4577,0.018650
2784.3214,0.018531
2786.1850,0.018330
2788.0487,0.018323
2789.9124,0.018534
2791.7760,0.018828
2793.6397,0.018743
2795.5034,0.018923
2797.3670,0.019084
2799.2307,0.018484
2801.0944,0.018413
2802.9581,0.018779
2804.8217,0.018868
2806.6854,0.018953
2808.5491,0.019037
2810.4127,0.018939
2812.2764,0.018996
2814.1401,0.019000
2816.0037,0.018863
2817.8674,0.018837
2819.7311,0.018710
2821.5947,0.018552
2823.4584,0.018792
2825.3221,0.019169
2827.1857,0.019161
2829.0494,0.019010
2830.9131,0.018904
2832.7768,0.018803
2834.6404,0.018852
2836.5041,0.019084
2838.3678,0.019409
2840.2314,0.019554
2842.0951,0.019469
2843.9588,0.019484
2845.8224,0.019466
2847.6861,0.019302
2849.5498,0.019291
2851.4134,0.019219
2853.2771,0.019140
2855.1408,0.019454
2857.0045,0.019575
2858.8681,0.019502
2860.7318,0.019697
2862.5955,0.019716
2864.4591,0.019692
2866.3228,0.019999
2868.1865,0.019996
2870.0501,0.019480
2871.9138,0.019580
2873.7775,0.020036
2875.6411,0.019928
2877.5048,0.019760
2879.3685,0.020165
2881.2321,0.020387
2883.0958,0.020072
2884.9595,0.019942
2886.8232,0.020083
2888.6868,0.020003
2890.5505,0.019654
2892.4142,0.019777
2894.2778,0.020134
2896.1415,0.019994
2898.0052,0.019855
2899.8688,0.020172
2901.7325,0.020452
2903.5962,0.020712
2905.4598,0.020731
2907.3235,0.020521
2909.1872,0.020589
2911.0509,0.020806
2912.9145,0.020708
2914.7782,0.020577
2916.6419,0.020742
2918.5055,0.020749
2920.3692,0.020836
2922.2329,0.020866
2924.0965,0.020650
2925.9602,0.020588
2927.8239,0.020681
2929.6875,0.020840
2931.5512,0.020689
2933.4149,0.020414
2935.2785,0.020688
2937.1422,0.021266
2939.0059,0.021088
2940.8696,0.020652
2942.7332,0.020590
2944.5969,0.020687
2946.4606,0.021225
2948.3242,0.021755
2950.1879,0.021744
2952.0516,0.021671
2953.9152,0.021421
2955.7789,0.021020
2957.6426,0.021199
2959.5062,0.021687
2961.3699,0.021582
2963.2336,0.021075
2965.0972,0.021205
2966.9609,0.021718
2968.8246,0.021808
2970.6883,0.021906
2972.5519,0.022071
2974.4156,0.022149
2976.2793,0.022277
2978.1429,0.022471
2980.0066,0.022565
2981.8703,0.022396
2983.7339,0.022213
2985.5976,0.022177
2987.4613,0.022112
2989.3249,0.022274
2991.1886,0.022373
2993.0523,0.022274
2994.9160,0.022423
2996.7796,0.022625
2998.6433,0.022569
3000.5070,0.022390
3002.3706,0.022069
3004.2343,0.022344
3006.0980,0.022697
3007.9616,0.022737
3009.8253,0.022947
3011.6890,0.022715
3013.5526,0.022786
3015.4163,0.022985
3017.2800,0.022365
3019.1436,0.021912
3021.0073,0.022263
3022.8710,0.022731
3024.7347,0.022803
3026.5983,0.023156
3028.4620,0.023495
3030.3257,0.023851
3032.1893,0.024181
3034.0530,0.023719
3035.9167,0.023431
3037.7803,0.023242
3039.6440,0.023269
3041.5077,0.023697
3043.3713,0.023667
3045.2350,0.023436
3047.0987,0.023780
3048.9624,0.024078
3050.8260,0.023763
3052.6897,0.024016
3054.5534,0.024526
3056.4170,0.024717
3058.2807,0.024902
3060.1444,0.025014
3062.0080,0.025223
3063.8717,0.025367
3065.7354,0.025127
3067.5990,0.024692
3069.4627,0.024715
3071.3264,0.025291
3073.1900,0.025341
3075.0537,0.024944
3076.9174,0.025253
3078.7811,0.025830
3080.6447,0.025766
3082.5084,0.025604
3084.3721,0.025992
3086.2357,0.026331
3088.0994,0.026045
3089.9631,0.025928
3091.8267,0.026081
3093.6904,0.025782
3095.5541,0.025719
3097.4177,0.026421
3099.2814,0.026587
3101.1451,0.026740
3103.0087,0.027506
3104.8724,0.027463
3106.7361,0.026953
3108.5998,0.026929
3110.4634,0.027097
3112.3271,0.027148
3114.1908,0.027317
3116.0544,0.027389
3117.9181,0.027601
3119.7818,0.028395
3121.6454,0.028775
3123.5091,0.028587
3125.3728,0.028383
3127.2364,0.028383
3129.1001,0.028684
3130.9638,0.028433
3132.8275,0.028235
3134.6911,0.028758
3136.5548,0.029092
3138.4185,0.029168
3140.2821,0.029354
3142.1458,0.029669
3144.0095,0.029664
3145.8731,0.029241
3147.7368,0.029125
3149.6005,0.029729
3151.4641,0.030271
3153.3278,0.030123
3155.1915,0.029694
3157.0551,0.029820
3158.9188,0.030754
3160.7825,0.031115
3162.6462,0.030529
3164.5098,0.030497
3166.3735,0.031042
3168.2372,0.031344
3170.1008,0.031539
3171.9645,0.031562
3173.8282,0.031181
3175.6918,0.031298
3177.5555,0.031655
3179.4192,0.031532
3181.2828,0.031521
3183.1465,0.031398
3185.0102,0.031436
3186.8739,0.032193
3188.7375,0.032797
3190.6012,0.033046
3192.4649,0.033174
3194.3285,0.032819
3196.1922,0.032657
3198.0559,0.033014
3199.9195,0.033484
3201.7832,0.033383
3203.6469,0.033381
3205.5105,0.033268
3207.3742,0.032739
3209.2379,0.033219
3211.1015,0.033675
3212.9652,0.033590
3214.8289,0.033676
3216.6926,0.033363
3218.5562,0.032949
3220.4199,0.033565
3222.2836,0.034862
3224.1472,0.035153
3226.0109,0.034203
3227.8746,0.033240
3229.7382,0.034052
3231.6019,0.035624
3233.4656,0.035667
3235.3292,0.035307
3237.1929,0.035033
3239.0566,0.034501
3240.9202,0.034454
3242.7839,0.035188
3244.6476,0.035642
3246.5113,0.035313
3248.3749,0.034927
3250.2386,0.035321
3252.1023,0.035650
3253.9659,0.034966
3255.8296,0.035148
3257.6933,0.035592
3259.5569,0.034762
3261.4206,0.034716
3263.2843,0.035907
3265.1479,0.036383
3267.0116,0.036789
3268.8753,0.037006
3270.7390,0.035809
3272.6026,0.035348
3274.4663,0.035824
3276.3300,0.035864
3278.1936,0.035871
3280.0573,0.036358
3281.9210,0.036529
3283.7846,0.035632
3285.6483,0.035634
3287.5120,0.036215
3289.3756,0.036228
3291.2393,0.035855
3293.1030,0.035689
3294.9666,0.035961
3296.8303,0.036172
3298.6940,0.036070
3300.5577,0.035671
3302.4213,0.035089
3304.2850,0.035287
3306.1487,0.036609
3308.0123,0.037255
3309.8760,0.036666
3311.7397,0.036509
3313.6033,0.037333
3315.4670,0.037049
3317.3307,0.036368
3319.1943,0.035998
3321.0580,0.035802
3322.9217,0.035904
3324.7854,0.036567
3326.6490,0.037045
3328.5127,0.036535
3330.3764,0.036465
3332.2400,0.036041
3334.1037,0.035565
3335.9674,0.036971
3337.8310,0.037384
3339.6947,0.036215
3341.5584,0.036108
3343.4220,0.036708
3345.2857,0.037101
3347.1494,0.038218
3349.0130,0.038542
3350.8767,0.037636
3352.7404,0.036485
3354.6041,0.035787
3356.4677,0.036257
3358.3314,0.036717
3360.1951,0.037090
3362.0587,0.037636
3363.9224,0.037288
3365.7861,0.036534
3367.6497,0.036247
3369.5134,0.036744
3371.3771,0.037107
3373.2407,0.036859
3375.1044,0.036290
3376.9681,0.036183
3378.8317,0.037004
3380.6954,0.036908
3382.5591,0.036924
3384.4228,0.037532
3386.2864,0.037025
3388.1501,0.036528
3390.0138,0.036972
3391.8774,0.036714
3393.7411,0.036687
3395.6048,0.036913
3397.4684,0.036964
3399.3321,0.037722
3401.1958,0.037424
3403.0594,0.035974
3404.9231,0.035579
3406.7868,0.036608
3408.6505,0.037643
3410.5141,0.036369
3412.3778,0.035536
3414.2415,0.036008
3416.1051,0.035427
3417.9688,0.034978
3419.8325,0.035483
3421.6961,0.035665
3423.5598,0.035030
3425.4235,0.034527
3427.2871,0.034666
3429.1508,0.034683
3431.0145,0.034918
3432.8781,0.034882
3434.7418,0.034037
3436.6055,0.033117
3438.4692,0.033654
3440.3328,0.035282
3442.1965,0.035545
3444.0602,0.034341
3445.9238,0.034277
3447.7875,0.033985
3449.6512,0.032817
3451.5148,0.033023
3453.3785,0.033070
3455.2422,0.032398
3457.1058,0.032541
3458.9695,0.032739
3460.8332,0.032986
3462.6969,0.032803
3464.5605,0.033030
3466.4242,0.033459
3468.2879,0.032064
3470.1515,0.030804
3472.0152,0.031353
3473.8789,0.032860
3475.7425,0.033361
3477.6062,0.031723
3479.4699,0.031967
3481.3335,0.033442
3483.1972,0.033453
3485.0609,0.032806
3486.9245,0.033155
3488.7882,0.032484
3490.6519,0.030955
3492.5156,0.030911
3494.3792,0.030862
3496.2429,0.030666
3498.1066,0.031337
3499.9702,0.031501
3501.8339,0.031195
3503.6976,0.031839
3505.5612,0.031333
3507.4249,0.030738
3509.2886,0.030522
3511.1522,0.031499
3513.0159,0.031547
3514.8796,0.030539
3516.7432,0.030749
3518.6069,0.031556
3520.4706,0.031443
3522.3343,0.031121
3524.1979,0.030348
3526.0616,0.030342
3527.9253,0.032077
3529.7889,0.032086
3531.6526,0.031478
3533.5163,0.032181
3535.3799,0.032187
3537.2436,0.031162
3539.1073,0.031065
3540.9709,0.031531
3542.8346,0.030241
3544.6983,0.029837
3546.5620,0.030774
3548.4256,0.030381
3550.2893,0.030392
3552.1530,0.031244
3554.0166,0.031530
3555.8803,0.030904
3557.7440,0.030633
3559.6076,0.030651
3561.4713,0.031637
3563.3350,0.032220
3565.1986,0.032046
3567.0623,0.031782
3568.9260,0.030913
3570.7896,0.029996
3572.6533,0.029553
3574.5170,0.029232
3576.3807,0.028573
3578.2443,0.029262
3580.1080,0.030530
3581.9717,0.029634
3583.8353,0.029652
3585.6990,0.030797
3587.5627,0.030325
3589.4263,0.028665
3591.2900,0.028051
3593.1537,0.028951
3595.0173,0.029470
3596.8810,0.029333
3598.7447,0.029641
3600.6084,0.028835
3602.4720,0.027964
3604.3357,0.028506
3606.1994,0.029207
3608.0630,0.029355
3609.9267,0.028749
3611.7904,0.029616
3613.6540,0.029635
3615.5177,0.027935
3617.3814,0.027580
3619.2450,0.027728
3621.1087,0.027162
3622.9724,0.027544
3624.8360,0.028375
3626.6997,0.027633
3628.5634,0.028232
3630.4271,0.028359
3632.2907,0.025983
3634.1544,0.026559
3636.0181,0.026165
3637.8817,0.025509
3639.7454,0.025879
3641.6091,0.025114
3643.4727,0.024797
3645.3364,0.025259
3647.2001,0.027007
3649.0637,0.026294
3650.9274,0.023881
3652.7911,0.022908
3654.6547,0.023121
3656.5184,0.023992
3658.3821,0.023546
3660.2458,0.023639
3662.1094,0.023580
3663.9731,0.023131
3665.8368,0.023484
3667.7004,0.024127
3669.5641,0.024731
3671.4278,0.024013
3673.2914,0.023031
3675.1551,0.023134
3677.0188,0.022017
3678.8824,0.020662
3680.7461,0.021034
3682.6098,0.020626
3684.4735,0.020244
3686.3371,0.020282
3688.2008,0.020264
3690.0645,0.019389
3691.9281,0.017635
3693.7918,0.016589
3695.6555,0.016581
3697.5191,0.016616
3699.3828,0.016226
3701.2465,0.016653
3703.1101,0.016486
3704.9738,0.015293
3706.8375,0.015300
3708.7011,0.016090
3710.5648,0.017216
3712.4285,0.017649
3714.2922,0.015800
3716.1558,0.014937
3718.0195,0.015569
3719.8832,0.015354
3721.7468,0.015305
3723.6105,0.014984
3725.4742,0.013917
3727.3378,0.012747
3729.2015,0.012711
3731.0652,0.012778
3732.9288,0.012366
3734.7925,0.012036
3736.6562,0.011838
3738.5199,0.011017
3740.3835,0.011275
3742.2472,0.012026
3744.1109,0.012735
3745.9745,0.012312
3747.8382,0.011719
3749.7019,0.012428
3751.5655,0.011770
3753.4292,0.011115
3755.2929,0.010394
3757.1565,0.010031
3759.0202,0.011172
3760.8839,0.011498
3762.7475,0.010931
3764.6112,0.011183
3766.4749,0.011396
3768.3386,0.011399
3770.2022,0.011350
3772.0659,0.010953
3773.9296,0.010953
3775.7932,0.011722
3777.6569,0.012079
3779.5206,0.012181
3781.3842,0.012107
3783.2479,0.011703
3785.1116,0.011493
3786.9752,0.011729
3788.8389,0.011746
3790.7026,0.011916
3792.5662,0.012177
3794.4299,0.011747
3796.2936,0.011838
3798.1573,0.011474
3800.0209,0.010778
3801.8846,0.011866
3803.7483,0.011753
3805.6119,0.011152
3807.4756,0.011849
3809.3393,0.011802
3811.2029,0.011453
3813.0666,0.011804
3814.9303,0.012519
3816.7939,0.013139
3818.6576,0.012454
3820.5213,0.012123
3822.3850,0.011800
3824.2486,0.011045
3826.1123,0.011494
3827.9760,0.011672
3829.8396,0.011755
3831.7033,0.012835
3833.5670,0.012517
3835.4306,0.011203
3837.2943,0.011641
3839.1580,0.012640
3841.0216,0.011647
3842.8853,0.010505
3844.7490,0.011359
3846.6126,0.011882
3848.4763,0.011438
3850.3400,0.011593
3852.2037,0.013040
3854.0673,0.013507
3855.9310,0.011362
3857.7947,0.010674
3859.6583,0.011157
3861.5220,0.011748
3863.3857,0.011955
3865.2493,0.011701
3867.1130,0.012287
3868.9767,0.013068
3870.8403,0.012576
3872.7040,0.011475
3874.5677,0.011666
3876.4314,0.011486
3878.2950,0.011747
3880.1587,0.012569
3882.0224,0.012376
3883.8860,0.012341
3885.7497,0.013114
3887.6134,0.012653
3889.4770,0.012434
3891.3407,0.013098
3893.2044,0.012628
3895.0680,0.011821
3896.9317,0.012061
3898.7954,0.012105
3900.6590,0.012336
3902.5227,0.012248
3904.3864,0.011932
3906.2501,0.011821
3908.1137,0.011761
3909.9774,0.011639
3911.8411,0.012170
3913.7047,0.013384
3915.5684,0.013576
3917.4321,0.012696
3919.2957,0.012605
3921.1594,0.012445
3923.0231,0.012232
3924.8867,0.012000
3926.7504,0.012279
3928.6141,0.013189
3930.4777,0.013360
3932.3414,0.012720
3934.2051,0.012605
3936.0688,0.012460
3937.9324,0.012184
3939.7961,0.012306
3941.6598,0.013064
3943.5234,0.012994
3945.3871,0.012065
3947.2508,0.012009
3949.1144,0.013421
3950.9781,0.013749
3952.8418,0.012510
3954.7054,0.012448
3956.5691,0.012472
3958.4328,0.012824
3960.2965,0.013117
3962.1601,0.012581
3964.0238,0.012695
3965.8875,0.013356
3967.7511,0.013282
3969.6148,0.012681
3971.4785,0.012633
3973.3421,0.012560
3975.2058,0.012895
3977.0695,0.012980
3978.9331,0.012380
3980.7968,0.013042
3982.6605,0.013614
3984.5241,0.013327
3986.3878,0.013212
3988.2515,0.013319
3990.1152,0.012823
3991.9788,0.012838
3993.8425,0.013120
3995.7062,0.012717
3997.5698,0.012847
3999.4335,0.013106
4001.2972,0.013149
4003.1608,0.012542
4005.0245,0.012350
4006.8882,0.013134
4008.7518,0.013272
4010.6155,0.012566
4012.4792,0.012552
4014.3429,0.013138
4016.2065,0.012856
4018.0702,0.012287
4019.9339,0.012730
4021.7975,0.012915
4023.6612,0.012645
4025.5249,0.013096
4027.3885,0.013220
4029.2522,0.012619
4031.1159,0.012227
4032.9795,0.012188
4034.8432,0.012361
4036.7069,0.012812
4038.5705,0.013287
4040.4342,0.013127
4042.2979,0.012436
4044.1616,0.012602
4046.0252,0.013049
4047.8889,0.013032
4049.7526,0.013487
4051.6162,0.012818
4053.4799,0.013161
4055.3436,0.013882
4057.2072,0.013453
4059.0709,0.012243
4060.9346,0.011985
4062.7982,0.012281
4064.6619,0.011662
4066.5256,0.011800
4068.3892,0.012462
4070.2529,0.012695
4072.1166,0.012994
4073.9803,0.013348
4075.8439,0.013126
4077.7076,0.012349
4079.5713,0.012541
4081.4349,0.013809
4083.2986,0.014408
4085.1623,0.013003
4087.0259,0.012651
4088.8896,0.013330
4090.7533,0.012862
4092.6169,0.012568
4094.4806,0.012653
4096.3443,0.012778
4098.2080,0.012665
4100.0716,0.012652
4101.9353,0.012948
4103.7990,0.013197
4105.6626,0.013019
4107.5263,0.012380
4109.3900,0.012657
4111.2536,0.013206
4113.1173,0.012464
4114.9810,0.012432
4116.8446,0.012642
4118.7083,0.012452
4120.5720,0.012356
4122.4356,0.012433
4124.2993,0.012730
4126.1630,0.012882
4128.0267,0.012989
4129.8903,0.012416
4131.7540,0.012149
4133.6177,0.012233
4135.4813,0.012204
4137.3450,0.013040
4139.2087,0.013307
4141.0723,0.013220
4142.9360,0.013211
4144.7997,0.012957
4146.6633,0.012704
4148.5270,0.012456
4150.3907,0.012117
4152.2544,0.012491
4154.1180,0.012630
4155.9817,0.012625
4157.8454,0.012986
4159.7090,0.013126
4161.5727,0.013220
4163.4364,0.013785
4165.3000,0.013265
4167.1637,0.012125
4169.0274,0.012624
4170.8910,0.013769
4172.7547,0.013263
4174.6184,0.012030
4176.4820,0.012414
4178.3457,0.012829
4180.2094,0.013162
4182.0731,0.013494
4183.9367,0.013848
4185.8004,0.012843
4187.6641,0.012097
4189.5277,0.012723
4191.3914,0.012907
4193.2551,0.012654
4195.1187,0.012682
4196.9824,0.012542
4198.8461,0.012588
4200.7097,0.012603
4202.5734,0.012512
4204.4371,0.013234
4206.3007,0.013593
4208.1644,0.013193
4210.0281,0.013124
4211.8918,0.013096
4213.7554,0.014123
4215.6191,0.013798
4217.4828,0.012719
4219.3464,0.012674
4221.2101,0.013432
4223.0738,0.013489
4224.9374,0.012997
4226.8011,0.012669
4228.6648,0.013243
4230.5284,0.013242
4232.3921,0.012394
4234.2558,0.012420
4236.1195,0.014527
4237.9831,0.014704
4239.8468,0.013356
4241.7105,0.012155
4243.5741,0.011732
4245.4378,0.012758
4247.3015,0.013212
4249.1651,0.012919
4251.0288,0.012793
4252.8925,0.012944
4254.7561,0.013417
4256.6198,0.013881
4258.4835,0.013610
4260.3471,0.012524
4262.2108,0.012742
4264.0745,0.013471
4265.9382,0.012687
4267.8018,0.012796
4269.6655,0.013269
4271.5292,0.013626
4273.3928,0.013926
4275.2565,0.013817
4277.1202,0.013665
4278.9838,0.012694
4280.8475,0.012655
4282.7112,0.012981
4284.5748,0.012923
4286.4385,0.013716
4288.3022,0.014720
4290.1659,0.015006
4292.0295,0.013991
4293.8932,0.013494
4295.7569,0.013437
4297.6205,0.013066
4299.4842,0.012897
4301.3479,0.013621
4303.2115,0.014243
4305.0752,0.013916
4306.9389,0.013691
4308.8025,0.013939
4310.6662,0.014175
4312.5299,0.013425
4314.3935,0.012753
4316.2572,0.013924
4318.1209,0.014136
4319.9846,0.012894
4321.8482,0.013323
4323.7119,0.014088
4325.5756,0.013921
4327.4392,0.013342
4329.3029,0.013461
4331.1666,0.013977
4333.0302,0.013878
4334.8939,0.013139
4336.7576,0.013802
4338.6212,0.014177
4340.4849,0.013592
4342.3486,0.013954
4344.2122,0.013552
4346.0759,0.012626
4347.9396,0.013206
4349.8033,0.013582
4351.6669,0.012824
4353.5306,0.012905
4355.3943,0.013770
4357.2579,0.013859
4359.1216,0.012888
4360.9853,0.012418
4362.8489,0.013386
4364.7126,0.013715
4366.5763,0.013102
4368.4399,0.013170
4370.3036,0.014059
4372.1673,0.014422
4374.0310,0.014023
4375.8946,0.013171
4377.7583,0.012433
4379.6220,0.013256
4381.4856,0.014326
4383.3493,0.013889
4385.2130,0.013128
4387.0766,0.012678
4388.9403,0.012614
4390.8040,0.012888
4392.6676,0.013193
4394.5313,0.013565
4396.3950,0.013921
4398.2586,0.013656
4400.1223,0.013668
4401.9860,0.013293
4403.8497,0.013437
4405.7133,0.013141
4407.5770,0.013236
4409.4407,0.013368
4411.3043,0.013648
4413.1680,0.014610
4415.0317,0.014453
4416.8953,0.014177
4418.7590,0.014102
4420.6227,0.013661
4422.4863,0.013142
4424.3500,0.013914
4426.2137,0.014866
4428.0774,0.014029
4429.9410,0.013107
4431.8047,0.012486
4433.6684,0.013084
4435.5320,0.014193
4437.3957,0.013412
4439.2594,0.012999
4441.1230,0.013128
4442.9867,0.012925
4444.8504,0.012678
4446.7140,0.013070
4448.5777,0.013445
4450.4414,0.013879
4452.3050,0.014520
4454.1687,0.014435
4456.0324,0.014052
4457.8961,0.013841
4459.7597,0.013384
4461.6234,0.013386
4463.4871,0.014016
4465.3507,0.013953
4467.2144,0.013757
4469.0781,0.013870
4470.9417,0.013667
4472.8054,0.014192
4474.6691,0.014471
4476.5327,0.014905
4478.3964,0.015004
4480.2601,0.014235
4482.1237,0.013921
4483.9874,0.013679
4485.8511,0.013177
4487.7148,0.013341
4489.5784,0.013413
4491.4421,0.013976
4493.3058,0.014399
4495.1694,0.014220
4497.0331,0.014411
4498.8968,0.014452
4500.7604,0.013449
