Wavenumber,Intensity
600.1014,0.001214
601.9651,0.008938
603.8287,0.001078
605.6924,-0.001061
607.5561,-0.001096
609.4197,-0.002741
611.2834,-0.001700
613.1471,-0.002429
615.0107,-0.006277
616.8744,-0.005403
618.7381,-0.005319
620.6017,-0.000423
622.4654,0.000819
624.3291,-0.000997
626.1928,0.000918
628.0564,0.000499
629.9201,-0.003674
631.7838,-0.005037
633.6474,-0.004618
635.5111,-0.003470
637.3748,0.000831
639.2384,0.001719
641.1021,-0.000310
642.9658,-0.003315
644.8294,-0.002270
646.6931,0.000288
648.5568,0.000868
650.4205,0.000579
652.2841,0.000501
654.1478,-0.000073
656.0115,-0.001081
657.8751,-0.000850
659.7388,-0.000462
661.6025,-0.000991
663.4661,-0.001720
665.3298,-0.001296
667.1935,-0.000248
669.0571,0.001476
670.9208,0.001750
672.7845,0.000755
674.6481,-0.000232
676.5118,-0.000468
678.3755,-0.000508
680.2392,-0.000440
682.1028,-0.000152
683.9665,0.000059
685.8302,-0.000923
687.6938,-0.000581
689.5575,-0.000201
691.4212,-0.000721
693.2848,0.000211
695.1485,0.000518
697.0122,-0.000240
698.8758,-0.000357
700.7395,-0.000319
702.6032,-0.000745
704.4669,-0.001220
706.3305,-0.001081
708.1942,-0.000267
710.0579,-0.000280
711.9215,-0.000855
713.7852,-0.000665
715.6489,-0.000347
717.5125,-0.000310
719.3762,-0.000554
721.2399,-0.000277
723.1035,-0.000049
724.9672,0.000019
726.8309,-0.000025
728.6945,-0.000502
730.5582,-0.000644
732.4219,-0.000689
734.2856,-0.001067
736.1492,-0.001113
738.0129,-0.000817
739.8766,-0.000292
741.7402,-0.000079
743.6039,-0.000345
745.4676,-0.000429
747.3312,-0.000544
749.1949,-0.000446
751.0586,-0.000139
752.9222,-0.000061
754.7859,-0.000213
756.6496,-0.000319
758.5132,-0.000003
760.3769,-0.000186
762.2406,-0.000465
764.1043,-0.000180
765.9679,-0.000137
767.8316,-0.000295
769.6953,-0.000167
771.5589,-0.000060
773.4226,-0.000146
775.2863,-0.000151
777.1499,-0.000202
779.0136,-0.000184
780.8773,-0.000254
782.7409,-0.000335
784.6046,-0.000409
786.4683,-0.000377
788.3320,-0.000189
790.1956,-0.000025
792.0593,-0.000121
793.9230,-0.000127
795.7866,-0.000112
797.6503,-0.000267
799.5140,-0.000416
801.3776,-0.000558
803.2413,-0.000667
805.1050,-0.000624
806.9686,-0.000443
808.8323,-0.000598
810.6960,-0.000709
812.5596,-0.000738
814.4233,-0.000604
816.2870,-0.000815
818.1507,-0.000845
820.0143,-0.000700
821.8780,-0.001016
823.7417,-0.001137
825.6053,-0.001044
827.4690,-0.000964
829.3327,-0.000898
831.1963,-0.001046
833.0600,-0.001072
834.9237,-0.000904
836.7873,-0.000878
838.6510,-0.000992
840.5147,-0.000999
842.3784,-0.000974
844.2420,-0.000919
846.1057,-0.000856
847.9694,-0.000823
849.8330,-0.000694
851.6967,-0.000724
853.5604,-0.000768
855.4240,-0.000825
857.2877,-0.000836
859.1514,-0.000785
861.0150,-0.000783
862.8787,-0.000643
864.7424,-0.000681
866.6060,-0.000759
868.4697,-0.000807
870.3334,-0.000913
872.1971,-0.000767
874.0607,-0.000696
875.9244,-0.000597
877.7881,-0.000559
879.6517,-0.000696
881.5154,-0.000638
883.3791,-0.000464
885.2427,-0.000519
887.1064,-0.000686
888.9701,-0.000840
890.8337,-0.000897
892.6974,-0.000757
894.5611,-0.000472
896.4247,-0.000341
898.2884,-0.000534
900.1521,-0.000677
902.0158,-0.000553
903.8794,-0.000501
905.7431,-0.000484
907.6068,-0.000481
909.4704,-0.000397
911.3341,-0.000354
913.1978,-0.000358
915.0614,-0.000332
916.9251,-0.000295
918.7888,-0.000258
920.6524,-0.000279
922.5161,-0.000241
924.3798,-0.000339
926.2435,-0.000418
928.1071,-0.000385
929.9708,-0.000385
931.8345,-0.000257
933.6981,-0.000155
935.5618,-0.000123
937.4255,-0.000042
939.2891,-0.000031
941.1528,0.000026
943.0165,0.000165
944.8801,0.000271
946.7438,0.000193
948.6075,0.000088
950.4711,0.000051
952.3348,-0.000055
954.1985,-0.000176
956.0622,-0.000288
957.9258,-0.000320
959.7895,-0.000327
961.6532,-0.000303
963.5168,-0.000379
965.3805,-0.000477
967.2442,-0.000413
969.1078,-0.000329
970.9715,-0.000249
972.8352,-0.000310
974.6988,-0.000393
976.5625,-0.000228
978.4262,-0.000056
980.2899,-0.000137
982.1535,-0.000215
984.0172,-0.000115
985.8809,-0.000058
987.7445,-0.000033
989.6082,0.000033
991.4719,-0.000020
993.3355,-0.000055
995.1992,0.000097
997.0629,0.000143
998.9265,0.000103
1000.7902,0.000125
1002.6539,0.000141
1004.5175,0.000205
1006.3812,0.000245
1008.2449,0.000258
1010.1086,0.000290
1011.9722,0.000330
1013.8359,0.000357
1015.6996,0.000353
1017.5632,0.000354
1019.4269,0.000372
1021.2906,0.000348
1023.1542,0.000356
1025.0179,0.000430
1026.8816,0.000557
1028.7452,0.000589
1030.6089,0.000587
1032.4726,0.000653
1034.3362,0.000664
1036.1999,0.000667
1038.0636,0.000714
1039.9273,0.000778
1041.7909,0.000768
1043.6546,0.000735
1045.5183,0.000698
1047.3819,0.000659
1049.2456,0.000654
1051.1093,0.000557
1052.9729,0.000500
1054.8366,0.000472
1056.7003,0.000313
1058.5639,0.000140
1060.4276,0.000161
1062.2913,0.000231
1064.1550,0.000288
1066.0186,0.000349
1067.8823,0.000332
1069.7460,0.000234
1071.6096,0.000225
1073.4733,0.000134
1075.3370,-0.000099
1077.2006,-0.000183
1079.0643,-0.000138
1080.9280,-0.000136
1082.7916,-0.000261
1084.6553,-0.000313
1086.5190,-0.000296
1088.3826,-0.000381
1090.2463,-0.000468
1092.1100,-0.000494
1093.9737,-0.000526
1095.8373,-0.000647
1097.7010,-0.000737
1099.5647,-0.000710
1101.4283,-0.000690
1103.2920,-0.000706
1105.1557,-0.000733
1107.0193,-0.000775
1108.8830,-0.000781
1110.7467,-0.000777
1112.6103,-0.000774
1114.4740,-0.000766
1116.3377,-0.000722
1118.2014,-0.000644
1120.0650,-0.000569
1121.9287,-0.000517
1123.7924,-0.000613
1125.6560,-0.000823
1127.5197,-0.000924
1129.3834,-0.000857
1131.2470,-0.000871
1133.1107,-0.000871
1134.9744,-0.000920
1136.8380,-0.001040
1138.7017,-0.001049
1140.5654,-0.001070
1142.4290,-0.001086
1144.2927,-0.001072
1146.1564,-0.001054
1148.0201,-0.001065
1149.8837,-0.001147
1151.7474,-0.001197
1153.6111,-0.001210
1155.4747,-0.001340
1157.3384,-0.001375
1159.2021,-0.001353
1161.0657,-0.001401
1162.9294,-0.001476
1164.7931,-0.001439
1166.6567,-0.001290
1168.5204,-0.001295
1170.3841,-0.001427
1172.2477,-0.001455
1174.1114,-0.001434
1175.9751,-0.001500
1177.8388,-0.001644
1179.7024,-0.001743
1181.5661,-0.001779
1183.4298,-0.001731
1185.2934,-0.001724
1187.1571,-0.001771
1189.0208,-0.001844
1190.8844,-0.001924
1192.7481,-0.001921
1194.6118,-0.001846
1196.4754,-0.001854
1198.3391,-0.001917
1200.2028,-0.002000
1202.0665,-0.002053
1203.9301,-0.002029
1205.7938,-0.002025
1207.6575,-0.002068
1209.5211,-0.002058
1211.3848,-0.002116
1213.2485,-0.002148
1215.1121,-0.002150
1216.9758,-0.002215
1218.8395,-0.002252
1220.7031,-0.002252
1222.5668,-0.002249
1224.4305,-0.002252
1226.2941,-0.002228
1228.1578,-0.002218
1230.0215,-0.002221
1231.8852,-0.002199
1233.7488,-0.002234
1235.6125,-0.002239
1237.4762,-0.002207
1239.3398,-0.002341
1241.2035,-0.002448
1243.0672,-0.002451
1244.9308,-0.002443
1246.7945,-0.002380
1248.6582,-0.002366
1250.5218,-0.002360
1252.3855,-0.002361
1254.2492,-0.002427
1256.1129,-0.002428
1257.9765,-0.002396
1259.8402,-0.002421
1261.7039,-0.002483
1263.5675,-0.002447
1265.4312,-0.002331
1267.2949,-0.002333
1269.1585,-0.002390
1271.0222,-0.002436
1272.8859,-0.002450
1274.7495,-0.002474
1276.6132,-0.002560
1278.4769,-0.002576
1280.3405,-0.002517
1282.2042,-0.002470
1284.0679,-0.002439
1285.9316,-0.002445
1287.7952,-0.002491
1289.6589,-0.002506
1291.5226,-0.002490
1293.3862,-0.002526
1295.2499,-0.002528
1297.1136,-0.002467
1298.9772,-0.002556
1300.8409,-0.002622
1302.7046,-0.002576
1304.5682,-0.002542
1306.4319,-0.002583
1308.2956,-0.002597
1310.1592,-0.002541
1312.0229,-0.002502
1313.8866,-0.002554
1315.7503,-0.002553
1317.6139,-0.002517
1319.4776,-0.002474
1321.3413,-0.002498
1323.2049,-0.002527
1325.0686,-0.002609
1326.9323,-0.002681
1328.7959,-0.002703
1330.6596,-0.002712
1332.5233,-0.002664
1334.3869,-0.002554
1336.2506,-0.002572
1338.1143,-0.002571
1339.9780,-0.002500
1341.8416,-0.002591
1343.7053,-0.002737
1345.5690,-0.002781
1347.4326,-0.002741
1349.2963,-0.002715
1351.1600,-0.002737
1353.0236,-0.002764
1354.8873,-0.002755
1356.7510,-0.002741
1358.6146,-0.002755
1360.4783,-0.002726
1362.3420,-0.002627
1364.2056,-0.002571
1366.0693,-0.002652
1367.9330,-0.002722
1369.7967,-0.002807
1371.6603,-0.002913
1373.5240,-0.002819
1375.3877,-0.002706
1377.2513,-0.002727
1379.1150,-0.002793
1380.9787,-0.002831
1382.8423,-0.002767
1384.7060,-0.002832
1386.5697,-0.002814
1388.4333,-0.002722
1390.2970,-0.002861
1392.1607,-0.003025
1394.0244,-0.002956
1395.8880,-0.002742
1397.7517,-0.002724
1399.6154,-0.002797
1401.4790,-0.002888
1403.3427,-0.002927
1405.2064,-0.002852
1407.0700,-0.002808
1408.9337,-0.002897
1410.7974,-0.002924
1412.6610,-0.002946
1414.5247,-0.002923
1416.3884,-0.002904
1418.2520,-0.002910
1420.1157,-0.002868
1421.9794,-0.002968
1423.8431,-0.003009
1425.7067,-0.002975
1427.5704,-0.002977
1429.4341,-0.002840
1431.2977,-0.002813
1433.1614,-0.003005
1435.0251,-0.003092
1436.8887,-0.002852
1438.7524,-0.002840
1440.6161,-0.003059
1442.4797,-0.003111
1444.3434,-0.003042
1446.2071,-0.003040
1448.0707,-0.003004
1449.9344,-0.002979
1451.7981,-0.003065
1453.6618,-0.003188
1455.5254,-0.003247
1457.3891,-0.002914
1459.2528,-0.002940
1461.1164,-0.003100
1462.9801,-0.003069
1464.8438,-0.002928
1466.7074,-0.003053
1468.5711,-0.003232
1470.4348,-0.003230
1472.2984,-0.003064
1474.1621,-0.003109
1476.0258,-0.003137
1477.8895,-0.003057
1479.7531,-0.003046
1481.6168,-0.003073
1483.4805,-0.003215
1485.3441,-0.003198
1487.2078,-0.003025
1489.0715,-0.003059
1490.9351,-0.003051
1492.7988,-0.003112
1494.6625,-0.003242
1496.5261,-0.003123
1498.3898,-0.003062
1500.2535,-0.003221
1502.1171,-0.003290
1503.9808,-0.003363
1505.8445,-0.003247
1507.7082,-0.002828
1509.5718,-0.003111
1511.4355,-0.003337
1513.2992,-0.003310
1515.1628,-0.003230
1517.0265,-0.003115
1518.8902,-0.003212
1520.7538,-0.003119
1522.6175,-0.002993
1524.4812,-0.003234
1526.3448,-0.003199
1528.2085,-0.003131
1530.0722,-0.003313
1531.9359,-0.003536
1533.7995,-0.003374
1535.6632,-0.003239
1537.5269,-0.003385
1539.3905,-0.003340
1541.2542,-0.003271
1543.1179,-0.003357
1544.9815,-0.003374
1546.8452,-0.003337
1548.7089,-0.003357
1550.5725,-0.003308
1552.4362,-0.003335
1554.2999,-0.003212
1556.1635,-0.003399
1558.0272,-0.003589
1559.8909,-0.002801
1561.7546,-0.002831
1563.6182,-0.003292
1565.4819,-0.003490
1567.3456,-0.003633
1569.2092,-0.003559
1571.0729,-0.003292
1572.9366,-0.003455
1574.8002,-0.003554
1576.6639,-0.003232
1578.5276,-0.003230
1580.3912,-0.003424
1582.2549,-0.003454
1584.1186,-0.003423
1585.9822,-0.003490
1587.8459,-0.003552
1589.7096,-0.003521
1591.5733,-0.003515
1593.4369,-0.003469
1595.3006,-0.003446
1597.1643,-0.003421
1599.0279,-0.003469
1600.8916,-0.003549
1602.7553,-0.003640
1604.6189,-0.003666
1606.4826,-0.003586
1608.3463,-0.003508
1610.2099,-0.003589
1612.0736,-0.003482
1613.9373,-0.003414
1615.8010,-0.003461
1617.6646,-0.003219
1619.5283,-0.003415
1621.3920,-0.003616
1623.2556,-0.003387
1625.1193,-0.003302
1626.9830,-0.003370
1628.8466,-0.003515
1630.7103,-0.003660
1632.5740,-0.003735
1634.4376,-0.003682
1636.3013,-0.003373
1638.1650,-0.003483
1640.0286,-0.003730
1641.8923,-0.003665
1643.7560,-0.003499
1645.6197,-0.003497
1647.4833,-0.003451
1649.3470,-0.003349
1651.2107,-0.003412
1653.0743,-0.003142
1654.9380,-0.003066
1656.8017,-0.003485
1658.6653,-0.003612
1660.5290,-0.003692
1662.3927,-0.003690
1664.2563,-0.003465
1666.1200,-0.003498
1667.9837,-0.003758
1669.8474,-0.003586
1671.7110,-0.003384
1673.5747,-0.003663
1675.4384,-0.003641
1677.3020,-0.003657
1679.1657,-0.003797
1681.0294,-0.003697
1682.8930,-0.003681
1684.7567,-0.003347
1686.6204,-0.003488
1688.4840,-0.003748
1690.3477,-0.003764
1692.2114,-0.003667
1694.0750,-0.003707
1695.9387,-0.003592
1697.8024,-0.003664
1699.6661,-0.003598
1701.5297,-0.003330
1703.3934,-0.003624
1705.2571,-0.003838
1707.1207,-0.003803
1708.9844,-0.003729
1710.8481,-0.003730
1712.7117,-0.003785
1714.5754,-0.003629
1716.4391,-0.003448
1718.3027,-0.003432
1720.1664,-0.003604
1722.0301,-0.003847
1723.8937,-0.003917
1725.7574,-0.003765
1727.6211,-0.003690
1729.4848,-0.003678
1731.3484,-0.003839
1733.2121,-0.003910
1735.0758,-0.003315
1736.9394,-0.003479
1738.8031,-0.003807
1740.6668,-0.003776
1742.5304,-0.003807
1744.3941,-0.003911
1746.2578,-0.003894
1748.1214,-0.003966
1749.9851,-0.004105
1751.8488,-0.003805
1753.7125,-0.003715
1755.5761,-0.003926
1757.4398,-0.003871
1759.3035,-0.003898
1761.1671,-0.003911
1763.0308,-0.003770
1764.8945,-0.003832
1766.7581,-0.003987
1768.6218,-0.003908
1770.4855,-0.003833
1772.3491,-0.003776
1774.2128,-0.003753
1776.0765,-0.003818
1777.9401,-0.003862
1779.8038,-0.003764
1781.6675,-0.003874
1783.5312,-0.004096
1785.3948,-0.003966
1787.2585,-0.003907
1789.1222,-0.004043
1790.9858,-0.004073
1792.8495,-0.003906
1794.7132,-0.003851
1796.5768,-0.003952
1798.4405,-0.003966
1800.3042,-0.003862
1802.1678,-0.003710
1804.0315,-0.003608
1805.8952,-0.003711
1807.7589,-0.003893
1809.6225,-0.004052
1811.4862,-0.004173
1813.3499,-0.004258
1815.2135,-0.004343
1817.0772,-0.004261
1818.9409,-0.004013
1820.8045,-0.003842
1822.6682,-0.003815
1824.5319,-0.003845
1826.3955,-0.003890
1828.2592,-0.003961
1830.1229,-0.003879
1831.9865,-0.003951
1833.8502,-0.004113
1835.7139,-0.004182
1837.5776,-0.004155
1839.4412,-0.004097
1841.3049,-0.004137
1843.1686,-0.004183
1845.0322,-0.003980
1846.8959,-0.003848
1848.7596,-0.003854
1850.6232,-0.003975
1852.4869,-0.003975
1854.3506,-0.003971
1856.2142,-0.004126
1858.0779,-0.004093
1859.9416,-0.004041
1861.8052,-0.004206
1863.6689,-0.004139
1865.5326,-0.004068
1867.3963,-0.004106
1869.2599,-0.004116
1871.1236,-0.004061
1872.9873,-0.004060
1874.8509,-0.004190
1876.7146,-0.004344
1878.5783,-0.004323
1880.4419,-0.004093
1882.3056,-0.003883
1884.1693,-0.004031
1886.0329,-0.004249
1887.8966,-0.004443
1889.7603,-0.004448
1891.6240,-0.004110
1893.4876,-0.003907
1895.3513,-0.004007
1897.2150,-0.004068
1899.0786,-0.003929
1900.9423,-0.003950
1902.8060,-0.004158
1904.6696,-0.004136
1906.5333,-0.003894
1908.3970,-0.003872
1910.2606,-0.004302
1912.1243,-0.004596
1913.9880,-0.004393
1915.8516,-0.004162
1917.7153,-0.004128
1919.5790,-0.003967
1921.4427,-0.003857
1923.3063,-0.003784
1925.1700,-0.003901
1927.0337,-0.004309
1928.8973,-0.004441
1930.7610,-0.004224
1932.6247,-0.004094
1934.4883,-0.003831
1936.3520,-0.003928
1938.2157,-0.004605
1940.0793,-0.004980
1941.9430,-0.004899
1943.8067,-0.004186
1945.6704,-0.003845
1947.5340,-0.004205
1949.3977,-0.003663
1951.2614,-0.003534
1953.1250,-0.004311
1954.9887,-0.004452
1956.8524,-0.004443
1958.7160,-0.004414
1960.5797,-0.004525
1962.4434,-0.004645
1964.3070,-0.004192
1966.1707,-0.003663
1968.0344,-0.003495
1969.8980,-0.003315
1971.7617,-0.003725
1973.6254,-0.004551
1975.4891,-0.004564
1977.3527,-0.004147
1979.2164,-0.003489
1981.0801,-0.003635
1982.9437,-0.003620
1984.8074,-0.002996
1986.6711,-0.003552
1988.5347,-0.004300
1990.3984,-0.003926
1992.2621,-0.003720
1994.1257,-0.004112
1995.9894,-0.004332
1997.8531,-0.003884
1999.7167,-0.003810
2001.5804,-0.003872
2003.4441,-0.003799
2005.3078,-0.004126
2007.1714,-0.004680
2009.0351,-0.004893
2010.8988,-0.004470
2012.7624,-0.004298
2014.6261,-0.004342
2016.4898,-0.004578
2018.3534,-0.004091
2020.2171,-0.003348
2022.0808,-0.003519
2023.9444,-0.003909
2025.8081,-0.004379
2027.6718,-0.003866
2029.5355,-0.003181
2031.3991,-0.003549
2033.2628,-0.004066
2035.1265,-0.004143
2036.9901,-0.004285
2038.8538,-0.004312
2040.7175,-0.003992
2042.5811,-0.003600
2044.4448,-0.003608
2046.3085,-0.004183
2048.1721,-0.004246
2050.0358,-0.003638
2051.8995,-0.003794
2053.7631,-0.004527
2055.6268,-0.004913
2057.4905,-0.004563
2059.3542,-0.003969
2061.2178,-0.004018
2063.0815,-0.004304
2064.9452,-0.004239
2066.8088,-0.004405
2068.6725,-0.004651
2070.5362,-0.004416
2072.3998,-0.004183
2074.2635,-0.004311
2076.1272,-0.004387
2077.9908,-0.004205
2079.8545,-0.003966
2081.7182,-0.003900
2083.5819,-0.004270
2085.4455,-0.004733
2087.3092,-0.004891
2089.1729,-0.004797
2091.0365,-0.004625
2092.9002,-0.004565
2094.7639,-0.004959
2096.6275,-0.005044
2098.4912,-0.004716
2100.3549,-0.004568
2102.2185,-0.004301
2104.0822,-0.004307
2105.9459,-0.004616
2107.8095,-0.004798
2109.6732,-0.004808
2111.5369,-0.004733
2113.4006,-0.004566
2115.2642,-0.004532
2117.1279,-0.004844
2118.9916,-0.004888
2120.8552,-0.004682
2122.7189,-0.004699
2124.5826,-0.005037
2126.4462,-0.005169
2128.3099,-0.004966
2130.1736,-0.005293
2132.0372,-0.005605
2133.9009,-0.005243
2135.7646,-0.005153
2137.6282,-0.005134
2139.4919,-0.004541
2141.3556,-0.004434
2143.2193,-0.004918
2145.0829,-0.005441
2146.9466,-0.005406
2148.8103,-0.005028
2150.6739,-0.004756
2152.5376,-0.004433
2154.4013,-0.004703
2156.2649,-0.004907
2158.1286,-0.004436
2159.9923,-0.004360
2161.8559,-0.004418
2163.7196,-0.004524
2165.5833,-0.004884
2167.4470,-0.004234
2169.3106,-0.004349
2171.1743,-0.005124
2173.0380,-0.004599
2174.9016,-0.004251
2176.7653,-0.004391
2178.6290,-0.004530
2180.4926,-0.004863
2182.3563,-0.004695
2184.2200,-0.004266
2186.0836,-0.004212
2187.9473,-0.004330
2189.8110,-0.004084
2191.6746,-0.003837
2193.5383,-0.003924
2195.4020,-0.004323
2197.2657,-0.004724
2199.1293,-0.004713
2200.9930,-0.005304
2202.8567,-0.006171
2204.7203,-0.005644
2206.5840,-0.004381
2208.4477,-0.004163
2210.3113,-0.004511
2212.1750,-0.004742
2214.0387,-0.005000
2215.9023,-0.004419
2217.7660,-0.004124
2219.6297,-0.004916
2221.4934,-0.005026
2223.3570,-0.004519
2225.2207,-0.004345
2227.0844,-0.004518
2228.9480,-0.004635
2230.8117,-0.004513
2232.6754,-0.004761
2234.5390,-0.004839
2236.4027,-0.004683
2238.2664,-0.004845
2240.1300,-0.004738
2241.9937,-0.004259
2243.8574,-0.004164
2245.7210,-0.004469
2247.5847,-0.004645
2249.4484,-0.004974
2251.3121,-0.004870
2253.1757,-0.004598
2255.0394,-0.004981
2256.9031,-0.005302
2258.7667,-0.005331
2260.6304,-0.004900
2262.4941,-0.004349
2264.3577,-0.004293
2266.2214,-0.004568
2268.0851,-0.004696
2269.9487,-0.004723
2271.8124,-0.005059
2273.6761,-0.005149
2275.5397,-0.004687
2277.4034,-0.004454
2279.2671,-0.004526
2281.1308,-0.004724
2282.9944,-0.005099
2284.8581,-0.005123
2286.7218,-0.004755
2288.5854,-0.004509
2290.4491,-0.004875
2292.3128,-0.005104
2294.1764,-0.004889
2296.0401,-0.004887
2297.9038,-0.004936
2299.7674,-0.004931
2301.6311,-0.004765
2303.4948,-0.004377
2305.3585,-0.004274
2307.2221,-0.004567
2309.0858,-0.004586
2310.9495,-0.004381
2312.8131,-0.004119
2314.6768,-0.003650
2316.5405,-0.003331
2318.4041,-0.003397
2320.2678,-0.003435
2322.1315,-0.003081
2323.9951,-0.002954
2325.8588,-0.002947
2327.7225,-0.002919
2329.5861,-0.003281
2331.4498,-0.003359
2333.3135,-0.002993
2335.1772,-0.002691
2337.0408,-0.002915
2338.9045,-0.003166
2340.7682,-0.002887
2342.6318,-0.002844
2344.4955,-0.002976
2346.3592,-0.003099
2348.2228,-0.003727
2350.0865,-0.004133
2351.9502,-0.003676
2353.8138,-0.003022
2355.6775,-0.002427
2357.5412,-0.001961
2359.4049,-0.001437
2361.2685,-0.001236
2363.1322,-0.002095
2364.9959,-0.002501
2366.8595,-0.002464
2368.7232,-0.002966
2370.5869,-0.003323
2372.4505,-0.003738
2374.3142,-0.004049
2376.1779,-0.004087
2378.0415,-0.004412
2379.9052,-0.004728
2381.7689,-0.004929
2383.6325,-0.005197
2385.4962,-0.005589
2387.3599,-0.005835
2389.2236,-0.005716
2391.0872,-0.005599
2392.9509,-0.005746
2394.8146,-0.005855
2396.6782,-0.005888
2398.5419,-0.005876
2400.4056,-0.005675
2402.2692,-0.005548
2404.1329,-0.005655
2405.9966,-0.005813
2407.8602,-0.005743
2409.7239,-0.005631
2411.5876,-0.005643
2413.4512,-0.005538
2415.3149,-0.005570
2417.1786,-0.005702
2419.0423,-0.005553
2420.9059,-0.005495
2422.7696,-0.005601
2424.6333,-0.005604
2426.4969,-0.005654
2428.3606,-0.005636
2430.2243,-0.005552
2432.0879,-0.005603
2433.9516,-0.005703
2435.8153,-0.005730
2437.6789,-0.005684
2439.5426,-0.005762
2441.4063,-0.005584
2443.2700,-0.005445
2445.1336,-0.005776
2446.9973,-0.005680
2448.8610,-0.005373
2450.7246,-0.005512
2452.5883,-0.005538
2454.4520,-0.005243
2456.3156,-0.005167
2458.1793,-0.005173
2460.0430,-0.005248
2461.9066,-0.005678
2463.7703,-0.005760
2465.6340,-0.005621
2467.4976,-0.006001
2469.3613,-0.006077
2471.2250,-0.005625
2473.0887,-0.005467
2474.9523,-0.005690
2476.8160,-0.005967
2478.6797,-0.005787
2480.5433,-0.005383
2482.4070,-0.005394
2484.2707,-0.005593
2486.1343,-0.005750
2487.9980,-0.005867
2489.8617,-0.005551
2491.7253,-0.005186
2493.5890,-0.005566
2495.4527,-0.005991
2497.3164,-0.005899
2499.1800,-0.005697
2501.0437,-0.005347
2502.9074,-0.005365
2504.7710,-0.005879
2506.6347,-0.005911
2508.4984,-0.005720
2510.3620,-0.005990
2512.2257,-0.005969
2514.0894,-0.005532
2515.9530,-0.005560
2517.8167,-0.005564
2519.6804,-0.005198
2521.5440,-0.005128
2523.4077,-0.005475
2525.2714,-0.005683
2527.1351,-0.005647
2528.9987,-0.005894
2530.8624,-0.006032
2532.7261,-0.005850
2534.5897,-0.005943
2536.4534,-0.005938
2538.3171,-0.005444
2540.1807,-0.005168
2542.0444,-0.005506
2543.9081,-0.005838
2545.7717,-0.005358
2547.6354,-0.005213
2549.4991,-0.005854
2551.3627,-0.005981
2553.2264,-0.005905
2555.0901,-0.005839
2556.9538,-0.005714
2558.8174,-0.005696
2560.6811,-0.005497
2562.5448,-0.005201
2564.4084,-0.005483
2566.2721,-0.006005
2568.1358,-0.005962
2569.9994,-0.005608
2571.8631,-0.005674
2573.7268,-0.005813
2575.5904,-0.005706
2577.4541,-0.005903
2579.3178,-0.006099
2581.1815,-0.006139
2583.0451,-0.006017
2584.9088,-0.005810
2586.7725,-0.005948
2588.6361,-0.006034
2590.4998,-0.005889
2592.3635,-0.005741
2594.2271,-0.005703
2596.0908,-0.005619
2597.9545,-0.005407
2599.8181,-0.005417
2601.6818,-0.005655
2603.5455,-0.005805
2605.4091,-0.005739
2607.2728,-0.005721
2609.1365,-0.005856
2611.0002,-0.005993
2612.8638,-0.005859
2614.7275,-0.005684
2616.5912,-0.005713
2618.4548,-0.005729
2620.3185,-0.005789
2622.1822,-0.005619
2624.0458,-0.005536
2625.9095,-0.005834
2627.7732,-0.005979
2629.6368,-0.006077
2631.5005,-0.006170
2633.3642,-0.006071
2635.2279,-0.005874
2637.0915,-0.005750
2638.9552,-0.005916
2640.8189,-0.006081
2642.6825,-0.005987
2644.5462,-0.005905
2646.4099,-0.006046
2648.2735,-0.006227
2650.1372,-0.006228
2652.0009,-0.006144
2653.8645,-0.006008
2655.7282,-0.005927
2657.5919,-0.006068
2659.4555,-0.006226
2661.3192,-0.006232
2663.1829,-0.006204
2665.0466,-0.006309
2666.9102,-0.006400
2668.7739,-0.006480
2670.6376,-0.006666
2672.5012,-0.006448
2674.3649,-0.006179
2676.2286,-0.006400
2678.0922,-0.006515
2679.9559,-0.006369
2681.8196,-0.006339
2683.6832,-0.006376
2685.5469,-0.006355
2687.4106,-0.006228
2689.2742,-0.006228
2691.1379,-0.006310
2693.0016,-0.006277
2694.8653,-0.006350
2696.7289,-0.006440
2698.5926,-0.006318
2700.4563,-0.006200
2702.3199,-0.006260
2704.1836,-0.006221
2706.0473,-0.006314
2707.9109,-0.006545
2709.7746,-0.006458
2711.6383,-0.006316
2713.5019,-0.006353
2715.3656,-0.006359
2717.2293,-0.006249
2719.0930,-0.006324
2720.9566,-0.006215
2722.8203,-0.005942
2724.6840,-0.006120
2726.5476,-0.006422
2728.4113,-0.006487
2730.2750,-0.006311
2732.1386,-0.006243
2734.0023,-0.006320
2735.8660,-0.006317
2737.7296,-0.006396
2739.5933,-0.006338
2741.4570,-0.006326
2743.3206,-0.006437
2745.1843,-0.006421
2747.0480,-0.006464
2748.9117,-0.006487
2750.7753,-0.006248
2752.6390,-0.006178
2754.5027,-0.006360
2756.3663,-0.006353
2758.2300,-0.006307
2760.0937,-0.006313
2761.9573,-0.006196
2763.8210,-0.006242
2765.6847,-0.006216
2767.5483,-0.006186
2769.4120,-0.006301
2771.2757,-0.006162
2773.1394,-0.006153
2775.0030,-0.006386
2776.8667,-0.006391
2778.7304,-0.006424
2780.5940,-0.006391
2782.4577,-0.006234
2784.3214,-0.006264
2786.1850,-0.006307
2788.0487,-0.006336
2789.9124,-0.006387
2791.7760,-0.006288
2793.6397,-0.006169
2795.5034,-0.006237
2797.3670,-0.006356
2799.2307,-0.006357
2801.0944,-0.006318
2802.9581,-0.006401
2804.8217,-0.006359
2806.6854,-0.006262
2808.5491,-0.006326
2810.4127,-0.006301
2812.2764,-0.006110
2814.1401,-0.005974
2816.0037,-0.006188
2817.8674,-0.006539
2819.7311,-0.006357
2821.5947,-0.006041
2823.4584,-0.006122
2825.3221,-0.006321
2827.1857,-0.006488
2829.0494,-0.006615
2830.9131,-0.006454
2832.7768,-0.006246
2834.6404,-0.006311
2836.5041,-0.006339
2838.3678,-0.006123
2840.2314,-0.006032
2842.0951,-0.006237
2843.9588,-0.006427
2845.8224,-0.006249
2847.6861,-0.006050
2849.5498,-0.006093
2851.4134,-0.006292
2853.2771,-0.006413
2855.1408,-0.006193
2857.0045,-0.006082
2858.8681,-0.006304
2860.7318,-0.006562
2862.5955,-0.006615
2864.4591,-0.006478
2866.3228,-0.006373
2868.1865,-0.006355
2870.0501,-0.006431
2871.9138,-0.006486
2873.7775,-0.006609
2875.6411,-0.006725
2877.5048,-0.006490
2879.3685,-0.005999
2881.2321,-0.005996
2883.0958,-0.006157
2884.9595,-0.006235
2886.8232,-0.006404
2888.6868,-0.006531
2890.5505,-0.006637
2892.4142,-0.006558
2894.2778,-0.006272
2896.1415,-0.006283
2898.0052,-0.006368
2899.8688,-0.006239
2901.7325,-0.006109
2903.5962,-0.005803
2905.4598,-0.005902
2907.3235,-0.006418
2909.1872,-0.006469
2911.0509,-0.006078
2912.9145,-0.005908
2914.7782,-0.005868
2916.6419,-0.005735
2918.5055,-0.005951
2920.3692,-0.006267
2922.2329,-0.006302
2924.0965,-0.006334
2925.9602,-0.006329
2927.8239,-0.006248
2929.6875,-0.006360
2931.5512,-0.006405
2933.4149,-0.006144
2935.2785,-0.005921
2937.1422,-0.005955
2939.0059,-0.006032
2940.8696,-0.006045
2942.7332,-0.006155
2944.5969,-0.006354
2946.4606,-0.006216
2948.3242,-0.006212
2950.1879,-0.006112
2952.0516,-0.005832
2953.9152,-0.005876
2955.7789,-0.006013
2957.6426,-0.006197
2959.5062,-0.006188
2961.3699,-0.006119
2963.2336,-0.006148
2965.0972,-0.006254
2966.9609,-0.006256
2968.8246,-0.005975
2970.6883,-0.005759
2972.5519,-0.005547
2974.4156,-0.005756
2976.2793,-0.006243
2978.1429,-0.006229
2980.0066,-0.006308
2981.8703,-0.006442
2983.7339,-0.006219
2985.5976,-0.006136
2987.4613,-0.006218
2989.3249,-0.006068
2991.1886,-0.005711
2993.0523,-0.005657
2994.9160,-0.005950
2996.7796,-0.005895
2998.6433,-0.005714
3000.5070,-0.005705
3002.3706,-0.005694
3004.2343,-0.005790
3006.0980,-0.006010
3007.9616,-0.006242
3009.8253,-0.006376
3011.6890,-0.005983
3013.5526,-0.005502
3015.4163,-0.005647
3017.2800,-0.005741
3019.1436,-0.005718
3021.0073,-0.006162
3022.8710,-0.006285
3024.7347,-0.006110
3026.5983,-0.006318
3028.4620,-0.006547
3030.3257,-0.006162
3032.1893,-0.005476
3034.0530,-0.005259
3035.9167,-0.005553
3037.7803,-0.005890
3039.6440,-0.005826
3041.5077,-0.005735
3043.3713,-0.005672
3045.2350,-0.005817
3047.0987,-0.006120
3048.9624,-0.005978
3050.8260,-0.005615
3052.6897,-0.005752
3054.5534,-0.005738
3056.4170,-0.005623
3058.2807,-0.005969
3060.1444,-0.006127
3062.0080,-0.005954
3063.8717,-0.005550
3065.7354,-0.005375
3067.5990,-0.005500
3069.4627,-0.005640
3071.3264,-0.005896
3073.1900,-0.006032
3075.0537,-0.006028
3076.9174,-0.005864
3078.7811,-0.005728
3080.6447,-0.005828
3082.5084,-0.005785
3084.3721,-0.005820
3086.2357,-0.005975
3088.0994,-0.005913
3089.9631,-0.005940
3091.8267,-0.005699
3093.6904,-0.005241
3095.5541,-0.005251
3097.4177,-0.005580
3099.2814,-0.005766
3101.1451,-0.005675
3103.0087,-0.005410
3104.8724,-0.005158
3106.7361,-0.005089
3108.5998,-0.005583
3110.4634,-0.005949
3112.3271,-0.005855
3114.1908,-0.006215
3116.0544,-0.006451
3117.9181,-0.005775
3119.7818,-0.005344
3121.6454,-0.005244
3123.5091,-0.005497
3125.3728,-0.005604
3127.2364,-0.005266
3129.1001,-0.005263
3130.9638,-0.005334
3132.8275,-0.005607
3134.6911,-0.005748
3136.5548,-0.005892
3138.4185,-0.005894
3140.2821,-0.005441
3142.1458,-0.005191
3144.0095,-0.005170
3145.8731,-0.005336
3147.7368,-0.004895
3149.6005,-0.004837
3151.4641,-0.005592
3153.3278,-0.005886
3155.1915,-0.005858
3157.0551,-0.005754
3158.9188,-0.005302
3160.7825,-0.005049
3162.6462,-0.005382
3164.5098,-0.004790
3166.3735,-0.004334
3168.2372,-0.005155
3170.1008,-0.005736
3171.9645,-0.005673
3173.8282,-0.005548
3175.6918,-0.005600
3177.5555,-0.005614
3179.4192,-0.005120
3181.2828,-0.005149
3183.1465,-0.005649
3185.0102,-0.005014
3186.8739,-0.004681
3188.7375,-0.005041
3190.6012,-0.005296
3192.4649,-0.005394
3194.3285,-0.005216
3196.1922,-0.005135
3198.0559,-0.005258
3199.9195,-0.005246
3201.7832,-0.005079
3203.6469,-0.005231
3205.5105,-0.005432
3207.3742,-0.005247
3209.2379,-0.005030
3211.1015,-0.004945
3212.9652,-0.005242
3214.8289,-0.005369
3216.6926,-0.005427
3218.5562,-0.005505
3220.4199,-0.005285
3222.2836,-0.005296
3224.1472,-0.005244
3226.0109,-0.004485
3227.8746,-0.004574
3229.7382,-0.005081
3231.6019,-0.005137
3233.4656,-0.004972
3235.3292,-0.004915
3237.1929,-0.004990
3239.0566,-0.004527
3240.9202,-0.004652
3242.7839,-0.004670
3244.6476,-0.004575
3246.5113,-0.005325
3248.3749,-0.005417
3250.2386,-0.004800
3252.1023,-0.004525
3253.9659,-0.005042
3255.8296,-0.005311
3257.6933,-0.005161
3259.5569,-0.004652
3261.4206,-0.004357
3263.2843,-0.004533
3265.1479,-0.005318
3267.0116,-0.005364
3268.8753,-0.004499
3270.7390,-0.004659
3272.6026,-0.004869
3274.4663,-0.005286
3276.3300,-0.004896
3278.1936,-0.004349
3280.0573,-0.004916
3281.9210,-0.004829
3283.7846,-0.004025
3285.6483,-0.003930
3287.5120,-0.004742
3289.3756,-0.005298
3291.2393,-0.004851
3293.1030,-0.004339
3294.9666,-0.003996
3296.8303,-0.003907
3298.6940,-0.004293
3300.5577,-0.005004
3302.4213,-0.004823
3304.2850,-0.004150
3306.1487,-0.004495
3308.0123,-0.004689
3309.8760,-0.004278
3311.7397,-0.004422
3313.6033,-0.004165
3315.4670,-0.003329
3317.3307,-0.003453
3319.1943,-0.005019
3321.0580,-0.005833
3322.9217,-0.004604
3324.7854,-0.003939
3326.6490,-0.004184
3328.5127,-0.003923
3330.3764,-0.004118
3332.2400,-0.004382
3334.1037,-0.004578
3335.9674,-0.004474
3337.8310,-0.003904
3339.6947,-0.003501
3341.5584,-0.003140
3343.4220,-0.004366
3345.2857,-0.005009
3347.1494,-0.004760
3349.0130,-0.004683
3350.8767,-0.004485
3352.7404,-0.004477
3354.6041,-0.004141
3356.4677,-0.003962
3358.3314,-0.003273
3360.1951,-0.002939
3362.0587,-0.004045
3363.9224,-0.004360
3365.7861,-0.004178
3367.6497,-0.004122
3369.5134,-0.004077
3371.3771,-0.003572
3373.2407,-0.003514
3375.1044,-0.004213
3376.9681,-0.004016
3378.8317,-0.004288
3380.6954,-0.004303
3382.5591,-0.003570
3384.4228,-0.003611
3386.2864,-0.004307
3388.1501,-0.004425
3390.0138,-0.004260
3391.8774,-0.004839
3393.7411,-0.004666
3395.6048,-0.004346
3397.4684,-0.004327
3399.3321,-0.004147
3401.1958,-0.004168
3403.0594,-0.004399
3404.9231,-0.004285
3406.7868,-0.004064
3408.6505,-0.003960
3410.5141,-0.003608
3412.3778,-0.002970
3414.2415,-0.003023
3416.1051,-0.003932
3417.9688,-0.004461
3419.8325,-0.003638
3421.6961,-0.003073
3423.5598,-0.003676
3425.4235,-0.003680
3427.2871,-0.003261
3429.1508,-0.003579
3431.0145,-0.004225
3432.8781,-0.004129
3434.7418,-0.004161
3436.6055,-0.004369
3438.4692,-0.004235
3440.3328,-0.004418
3442.1965,-0.005526
3444.0602,-0.004932
3445.9238,-0.003347
3447.7875,-0.003553
3449.6512,-0.004783
3451.5148,-0.004076
3453.3785,-0.003841
3455.2422,-0.004103
3457.1058,-0.003687
3458.9695,-0.003634
3460.8332,-0.003391
3462.6969,-0.003926
3464.5605,-0.004707
3466.4242,-0.003722
3468.2879,-0.002795
3470.1515,-0.003128
3472.0152,-0.003773
3473.8789,-0.003921
3475.7425,-0.004987
3477.6062,-0.005732
3479.4699,-0.004666
3481.3335,-0.003015
3483.1972,-0.002637
3485.0609,-0.003625
3486.9245,-0.004014
3488.7882,-0.003613
3490.6519,-0.003857
3492.5156,-0.004132
3494.3792,-0.003224
3496.2429,-0.002097
3498.1066,-0.002330
3499.9702,-0.004508
3501.8339,-0.005755
3503.6976,-0.004543
3505.5612,-0.003378
3507.4249,-0.003231
3509.2886,-0.002782
3511.1522,-0.002185
3513.0159,-0.002132
3514.8796,-0.002489
3516.7432,-0.003924
3518.6069,-0.004406
3520.4706,-0.003027
3522.3343,-0.003015
3524.1979,-0.003953
3526.0616,-0.003954
3527.9253,-0.003602
3529.7889,-0.004177
3531.6526,-0.004250
3533.5163,-0.002776
3535.3799,-0.001728
3537.2436,-0.002275
3539.1073,-0.002563
3540.9709,-0.002869
3542.8346,-0.003522
3544.6983,-0.003689
3546.5620,-0.003966
3548.4256,-0.004072
3550.2893,-0.003475
3552.1530,-0.003338
3554.0166,-0.002751
3555.8803,-0.002644
3557.7440,-0.002849
3559.6076,-0.002658
3561.4713,-0.003356
3563.3350,-0.004321
3565.1986,-0.004814
3567.0623,-0.004682
3568.9260,-0.002974
3570.7896,-0.001953
3572.6533,-0.003041
3574.5170,-0.003097
3576.3807,-0.001655
3578.2443,-0.001729
3580.1080,-0.002634
3581.9717,-0.002582
3583.8353,-0.002503
3585.6990,-0.002552
3587.5627,-0.003266
3589.4263,-0.003991
3591.2900,-0.003111
3593.1537,-0.003140
3595.0173,-0.003525
3596.8810,-0.002624
3598.7447,-0.002761
3600.6084,-0.002581
3602.4720,-0.002081
3604.3357,-0.002551
3606.1994,-0.003741
3608.0630,-0.003553
3609.9267,-0.002018
3611.7904,-0.002216
3613.6540,-0.003010
3615.5177,-0.002497
3617.3814,-0.002674
3619.2450,-0.002765
3621.1087,-0.002254
3622.9724,-0.002329
3624.8360,-0.002717
3626.6997,-0.003401
3628.5634,-0.003314
3630.4271,-0.002090
3632.2907,-0.001605
3634.1544,-0.002561
3636.0181,-0.002613
3637.8817,-0.001832
3639.7454,-0.002312
3641.6091,-0.002813
3643.4727,-0.002804
3645.3364,-0.002639
3647.2001,-0.002966
3649.0637,-0.003044
3650.9274,-0.002455
3652.7911,-0.002063
3654.6547,-0.002284
3656.5184,-0.003100
3658.3821,-0.003021
3660.2458,-0.002258
3662.1094,-0.002194
3663.9731,-0.002580
3665.8368,-0.002182
3667.7004,-0.001845
3669.5641,-0.002609
3671.4278,-0.001712
3673.2914,-0.001388
3675.1551,-0.001757
3677.0188,-0.000985
3678.8824,-0.001802
3680.7461,-0.002985
3682.6098,-0.002028
3684.4735,-0.002085
3686.3371,-0.002593
3688.2008,-0.002231
3690.0645,-0.002420
3691.9281,-0.002209
3693.7918,-0.002033
3695.6555,-0.002285
3697.5191,-0.002178
3699.3828,-0.002006
3701.2465,-0.002234
3703.1101,-0.001855
3704.9738,-0.001638
3706.8375,-0.002011
3708.7011,-0.002495
3710.5648,-0.002605
3712.4285,-0.002494
3714.2922,-0.002429
3716.1558,-0.002153
3718.0195,-0.002378
3719.8832,-0.002671
3721.7468,-0.002223
3723.6105,-0.001719
3725.4742,-0.001699
3727.3378,-0.001661
3729.2015,-0.001153
3731.0652,-0.001687
3732.9288,-0.002068
3734.7925,-0.001343
3736.6562,-0.001917
3738.5199,-0.002200
3740.3835,-0.001883
3742.2472,-0.001746
3744.1109,-0.001814
3745.9745,-0.001676
3747.8382,-0.001464
3749.7019,-0.002974
3751.5655,-0.003379
3753.4292,-0.002357
3755.2929,-0.001382
3757.1565,-0.001368
3759.0202,-0.002217
3760.8839,-0.002136
3762.7475,-0.001864
3764.6112,-0.001819
3766.4749,-0.001641
3768.3386,-0.001665
3770.2022,-0.002184
3772.0659,-0.002285
3773.9296,-0.002238
3775.7932,-0.002079
3777.6569,-0.001687
3779.5206,-0.001578
3781.3842,-0.001966
3783.2479,-0.001952
3785.1116,-0.001970
3786.9752,-0.002630
3788.8389,-0.003028
3790.7026,-0.002800
3792.5662,-0.001866
3794.4299,-0.001773
3796.2936,-0.002318
3798.1573,-0.002188
3800.0209,-0.002391
3801.8846,-0.002873
3803.7483,-0.001938
3805.6119,-0.001556
3807.4756,-0.002101
3809.3393,-0.002153
3811.2029,-0.001625
3813.0666,-0.001386
3814.9303,-0.002110
3816.7939,-0.002376
3818.6576,-0.001154
3820.5213,-0.000981
3822.3850,-0.001056
3824.2486,-0.001542
3826.1123,-0.002644
3827.9760,-0.002476
3829.8396,-0.001839
3831.7033,-0.002047
3833.5670,-0.002128
3835.4306,-0.001706
3837.2943,-0.001223
3839.1580,-0.001712
3841.0216,-0.001948
3842.8853,-0.001714
3844.7490,-0.001813
3846.6126,-0.001608
3848.4763,-0.001419
3850.3400,-0.002487
3852.2037,-0.002954
3854.0673,-0.001780
3855.9310,-0.001464
3857.7947,-0.001502
3859.6583,-0.001030
3861.5220,-0.001012
3863.3857,-0.002250
3865.2493,-0.002816
3867.1130,-0.001501
3868.9767,-0.001285
3870.8403,-0.002162
3872.7040,-0.002347
3874.5677,-0.002667
3876.4314,-0.002148
3878.2950,-0.001667
3880.1587,-0.001743
3882.0224,-0.001331
3883.8860,-0.001740
3885.7497,-0.002672
3887.6134,-0.002204
3889.4770,-0.002082
3891.3407,-0.001977
3893.2044,-0.000856
3895.0680,-0.000947
3896.9317,-0.001751
3898.7954,-0.001682
3900.6590,-0.001269
3902.5227,-0.001288
3904.3864,-0.001261
3906.2501,-0.000812
3908.1137,-0.001003
3909.9774,-0.001685
3911.8411,-0.002129
3913.7047,-0.001906
3915.5684,-0.001566
3917.4321,-0.001972
3919.2957,-0.002660
3921.1594,-0.002631
3923.0231,-0.001935
3924.8867,-0.001941
3926.7504,-0.001930
3928.6141,-0.001454
3930.4777,-0.001698
3932.3414,-0.001796
3934.2051,-0.001767
3936.0688,-0.001474
3937.9324,-0.001194
3939.7961,-0.001578
3941.6598,-0.002426
3943.5234,-0.002936
3945.3871,-0.002154
3947.2508,-0.001822
3949.1144,-0.001847
3950.9781,-0.001407
3952.8418,-0.001430
3954.7054,-0.001535
3956.5691,-0.001359
3958.4328,-0.001589
3960.2965,-0.001494
3962.1601,-0.001251
3964.0238,-0.001731
3965.8875,-0.001764
3967.7511,-0.001681
3969.6148,-0.001661
3971.4785,-0.001267
3973.3421,-0.001469
3975.2058,-0.001555
3977.0695,-0.001278
3978.9331,-0.001711
3980.7968,-0.001533
3982.6605,-0.001052
3984.5241,-0.001374
3986.3878,-0.001424
3988.2515,-0.000809
3990.1152,-0.000990
3991.9788,-0.001822
3993.8425,-0.001625
3995.7062,-0.000972
3997.5698,-0.000709
3999.4335,-0.000817
4001.2972,-0.001488
4003.1608,-0.001526
4005.0245,-0.001678
4006.8882,-0.001725
4008.7518,-0.001069
4010.6155,-0.000967
4012.4792,-0.001198
4014.3429,-0.001164
4016.2065,-0.000828
4018.0702,-0.001344
4019.9339,-0.001360
4021.7975,-0.001014
4023.6612,-0.000865
4025.5249,-0.001477
4027.3885,-0.001629
4029.2522,-0.001250
4031.1159,-0.001357
4032.9795,-0.001372
4034.8432,-0.001361
4036.7069,-0.001732
4038.5705,-0.001504
4040.4342,-0.000767
4042.2979,-0.000955
4044.1616,-0.001459
4046.0252,-0.001282
4047.8889,-0.001481
4049.7526,-0.001203
4051.6162,-0.000720
4053.4799,-0.000925
4055.3436,-0.001341
4057.2072,-0.000733
4059.0709,-0.000533
4060.9346,-0.001242
4062.7982,-0.001418
4064.6619,-0.001248
4066.5256,-0.001800
4068.3892,-0.001208
4070.2529,-0.000455
4072.1166,-0.000921
4073.9803,-0.000821
4075.8439,-0.000452
4077.7076,-0.000734
4079.5713,-0.001075
4081.4349,-0.001370
4083.2986,-0.001466
4085.1623,-0.001389
4087.0259,-0.001047
4088.8896,-0.000231
4090.7533,-0.000143
4092.6169,-0.000908
4094.4806,-0.001329
4096.3443,-0.000905
4098.2080,-0.000679
4100.0716,-0.001021
