Wavenumber,Intensity
600.1014,0.036213
601.9651,0.032621
603.8287,0.029581
605.6924,0.030216
607.5561,0.029978
609.4197,0.028695
611.2834,0.034053
613.1471,0.035762
615.0107,0.035833
616.8744,0.031560
618.7381,0.025458
620.6017,0.026589
622.4654,0.030887
624.3291,0.032204
626.1928,0.031274
628.0564,0.029822
629.9201,0.028878
631.7838,0.027499
633.6474,0.024792
635.5111,0.023432
637.3748,0.024553
639.2384,0.025861
641.1021,0.026349
642.9658,0.025880
644.8294,0.027335
646.6931,0.028929
648.5568,0.027720
650.4205,0.024476
652.2841,0.023542
654.1478,0.023656
656.0115,0.023823
657.8751,0.024924
659.7388,0.024374
661.6025,0.023704
663.4661,0.023709
665.3298,0.024732
667.1935,0.027537
669.0571,0.027567
670.9208,0.024651
672.7845,0.024652
674.6481,0.023283
676.5118,0.023732
678.3755,0.025459
680.2392,0.025349
682.1028,0.024751
683.9665,0.024970
685.8302,0.025191
687.6938,0.025608
689.5575,0.026401
691.4212,0.027842
693.2848,0.029394
695.1485,0.030478
697.0122,0.029182
698.8758,0.026608
700.7395,0.025142
702.6032,0.024367
704.4669,0.024063
706.3305,0.024063
708.1942,0.023740
710.0579,0.023252
711.9215,0.022631
713.7852,0.022355
715.6489,0.022303
717.5125,0.021882
719.3762,0.022300
721.2399,0.022628
723.1035,0.022083
724.9672,0.022053
726.8309,0.022133
728.6945,0.021937
730.5582,0.021844
732.4219,0.022155
734.2856,0.022217
736.1492,0.022195
738.0129,0.022113
739.8766,0.022229
741.7402,0.022048
743.6039,0.022068
745.4676,0.022226
747.3312,0.022217
749.1949,0.022526
751.0586,0.023038
752.9222,0.023258
754.7859,0.023752
756.6496,0.024582
758.5132,0.024733
760.3769,0.024903
762.2406,0.025353
764.1043,0.025859
765.9679,0.027001
767.8316,0.028552
769.6953,0.030182
771.5589,0.032430
773.4226,0.034858
775.2863,0.036939
777.1499,0.038796
779.0136,0.039986
780.8773,0.039617
782.7409,0.037945
784.6046,0.036114
786.4683,0.034786
788.3320,0.034159
790.1956,0.034589
792.0593,0.036015
793.9230,0.037879
795.7866,0.039366
797.6503,0.039590
799.5140,0.038351
801.3776,0.036275
803.2413,0.033379
805.1050,0.030065
806.9686,0.026525
808.8323,0.023592
810.6960,0.021493
812.5596,0.020139
814.4233,0.019290
816.2870,0.018298
818.1507,0.017314
820.0143,0.016898
821.8780,0.016709
823.7417,0.016456
825.6053,0.016294
827.4690,0.016111
829.3327,0.016192
831.1963,0.016242
833.0600,0.016026
834.9237,0.016064
836.7873,0.016093
838.6510,0.015952
840.5147,0.015936
842.3784,0.015950
844.2420,0.015972
846.1057,0.015967
847.9694,0.016049
849.8330,0.016163
851.6967,0.016187
853.5604,0.016260
855.4240,0.016217
857.2877,0.016244
859.1514,0.016353
861.0150,0.016544
862.8787,0.016688
864.7424,0.016782
866.6060,0.016890
868.4697,0.016984
870.3334,0.017257
872.1971,0.017418
874.0607,0.017465
875.9244,0.017649
877.7881,0.017836
879.6517,0.017841
881.5154,0.017578
883.3791,0.017429
885.2427,0.017437
887.1064,0.017400
888.9701,0.017442
890.8337,0.017509
892.6974,0.017545
894.5611,0.017692
896.4247,0.017915
898.2884,0.018087
900.1521,0.018301
902.0158,0.018462
903.8794,0.018546
905.7431,0.018626
907.6068,0.018778
909.4704,0.018938
911.3341,0.019155
913.1978,0.019360
915.0614,0.019538
916.9251,0.019772
918.7888,0.019979
920.6524,0.020179
922.5161,0.020357
924.3798,0.020499
926.2435,0.020620
928.1071,0.020815
929.9708,0.021034
931.8345,0.021363
933.6981,0.021725
935.5618,0.021974
937.4255,0.022239
939.2891,0.022638
941.1528,0.022991
943.0165,0.023302
944.8801,0.023623
946.7438,0.024154
948.6075,0.024642
950.4711,0.024737
952.3348,0.024675
954.1985,0.024547
956.0622,0.024389
957.9258,0.024387
959.7895,0.024631
961.6532,0.024849
963.5168,0.024932
965.3805,0.025138
967.2442,0.025536
969.1078,0.025920
970.9715,0.026193
972.8352,0.026477
974.6988,0.026828
976.5625,0.027161
978.4262,0.027632
980.2899,0.028132
982.1535,0.028581
984.0172,0.029134
985.8809,0.029693
987.7445,0.030049
989.6082,0.030481
991.4719,0.031020
993.3355,0.031536
995.1992,0.032124
997.0629,0.032655
998.9265,0.033133
1000.7902,0.033590
1002.6539,0.034163
1004.5175,0.034698
1006.3812,0.035186
1008.2449,0.035812
1010.1086,0.036444
1011.9722,0.037044
1013.8359,0.037644
1015.6996,0.038204
1017.5632,0.038852
1019.4269,0.039589
1021.2906,0.040278
1023.1542,0.040982
1025.0179,0.041754
1026.8816,0.042546
1028.7452,0.043344
1030.6089,0.044158
1032.4726,0.044917
1034.3362,0.045717
1036.1999,0.046700
1038.0636,0.047658
1039.9273,0.048595
1041.7909,0.049493
1043.6546,0.050296
1045.5183,0.051158
1047.3819,0.052091
1049.2456,0.052883
1051.1093,0.053508
1052.9729,0.054097
1054.8366,0.054699
1056.7003,0.055398
1058.5639,0.056056
1060.4276,0.056613
1062.2913,0.057011
1064.1550,0.057337
1066.0186,0.057615
1067.8823,0.057655
1069.7460,0.057506
1071.6096,0.057392
1073.4733,0.057414
1075.3370,0.057444
1077.2006,0.057399
1079.0643,0.057190
1080.9280,0.056888
1082.7916,0.056556
1084.6553,0.056062
1086.5190,0.055452
1088.3826,0.054630
1090.2463,0.053721
1092.1100,0.052859
1093.9737,0.051960
1095.8373,0.051000
1097.7010,0.050051
1099.5647,0.049009
1101.4283,0.047830
1103.2920,0.046766
1105.1557,0.045734
1107.0193,0.044683
1108.8830,0.043759
1110.7467,0.042809
1112.6103,0.041828
1114.4740,0.040980
1116.3377,0.040356
1118.2014,0.039794
1120.0650,0.039059
1121.9287,0.038135
1123.7924,0.037174
1125.6560,0.036210
1127.5197,0.035179
1129.3834,0.034245
1131.2470,0.033383
1133.1107,0.032648
1134.9744,0.031965
1136.8380,0.031074
1138.7017,0.030299
1140.5654,0.029704
1142.4290,0.029115
1144.2927,0.028551
1146.1564,0.027957
1148.0201,0.027384
1149.8837,0.026837
1151.7474,0.026393
1153.6111,0.026073
1155.4747,0.025864
1157.3384,0.025867
1159.2021,0.026179
1161.0657,0.026671
1162.9294,0.027017
1164.7931,0.026856
1166.6567,0.026154
1168.5204,0.025336
1170.3841,0.024592
1172.2477,0.023924
1174.1114,0.023294
1175.9751,0.022792
1177.8388,0.022410
1179.7024,0.021952
1181.5661,0.021397
1183.4298,0.021064
1185.2934,0.020865
1187.1571,0.020523
1189.0208,0.020102
1190.8844,0.019766
1192.7481,0.019391
1194.6118,0.019038
1196.4754,0.018621
1198.3391,0.018207
1200.2028,0.017740
1202.0665,0.017212
1203.9301,0.016671
1205.7938,0.016134
1207.6575,0.015558
1209.5211,0.014961
1211.3848,0.014320
1213.2485,0.013654
1215.1121,0.013057
1216.9758,0.012444
1218.8395,0.011777
1220.7031,0.011158
1222.5668,0.010573
1224.4305,0.010026
1226.2941,0.009590
1228.1578,0.009193
1230.0215,0.008820
1231.8852,0.008584
1233.7488,0.008376
1235.6125,0.008087
1237.4762,0.007818
1239.3398,0.007639
1241.2035,0.007509
1243.0672,0.007347
1244.9308,0.007111
1246.7945,0.006979
1248.6582,0.006870
1250.5218,0.006610
1252.3855,0.006343
1254.2492,0.006207
1256.1129,0.006088
1257.9765,0.005948
1259.8402,0.005865
1261.7039,0.005780
1263.5675,0.005635
1265.4312,0.005477
1267.2949,0.005376
1269.1585,0.005328
1271.0222,0.005292
1272.8859,0.005279
1274.7495,0.005237
1276.6132,0.005141
1278.4769,0.005103
1280.3405,0.005012
1282.2042,0.004877
1284.0679,0.004861
1285.9316,0.004784
1287.7952,0.004789
1289.6589,0.004772
1291.5226,0.004770
1293.3862,0.004771
1295.2499,0.004621
1297.1136,0.004450
1298.9772,0.004427
1300.8409,0.004462
1302.7046,0.004397
1304.5682,0.004353
1306.4319,0.004318
1308.2956,0.004308
1310.1592,0.004256
1312.0229,0.004235
1313.8866,0.004323
1315.7503,0.004327
1317.6139,0.004293
1319.4776,0.004306
1321.3413,0.004283
1323.2049,0.004241
1325.0686,0.004178
1326.9323,0.004139
1328.7959,0.004147
1330.6596,0.004095
1332.5233,0.004025
1334.3869,0.004005
1336.2506,0.004025
1338.1143,0.004078
1339.9780,0.004188
1341.8416,0.004157
1343.7053,0.004051
1345.5690,0.004027
1347.4326,0.004039
1349.2963,0.004099
1351.1600,0.004081
1353.0236,0.003963
1354.8873,0.003982
1356.7510,0.004033
1358.6146,0.004031
1360.4783,0.003969
1362.3420,0.004146
1364.2056,0.004305
1366.0693,0.004064
1367.9330,0.004032
1369.7967,0.004046
1371.6603,0.003941
1373.5240,0.004035
1375.3877,0.004220
1377.2513,0.004242
1379.1150,0.004221
1380.9787,0.004106
1382.8423,0.004100
1384.7060,0.004027
1386.5697,0.004163
1388.4333,0.004348
1390.2970,0.004278
1392.1607,0.004123
1394.0244,0.004223
1395.8880,0.004348
1397.7517,0.004276
1399.6154,0.004386
1401.4790,0.004134
1403.3427,0.003994
1405.2064,0.004239
1407.0700,0.004335
1408.9337,0.004244
1410.7974,0.004245
1412.6610,0.004172
1414.5247,0.004154
1416.3884,0.003980
1418.2520,0.004055
1420.1157,0.004412
1421.9794,0.004156
1423.8431,0.004157
1425.7067,0.004157
1427.5704,0.003993
1429.4341,0.004044
1431.2977,0.004232
1433.1614,0.004125
1435.0251,0.003872
1436.8887,0.004158
1438.7524,0.004118
1440.6161,0.004014
1442.4797,0.003975
1444.3434,0.003967
1446.2071,0.003909
1448.0707,0.004000
1449.9344,0.003948
1451.7981,0.004035
1453.6618,0.003928
1455.5254,0.003758
1457.3891,0.004298
1459.2528,0.004270
1461.1164,0.003875
1462.9801,0.003623
1464.8438,0.003857
1466.7074,0.003853
1468.5711,0.003646
1470.4348,0.003326
1472.2984,0.003690
1474.1621,0.003891
1476.0258,0.003776
1477.8895,0.003574
1479.7531,0.003451
1481.6168,0.003532
1483.4805,0.003555
1485.3441,0.003542
1487.2078,0.003511
1489.0715,0.003596
1490.9351,0.003920
1492.7988,0.003522
1494.6625,0.003094
1496.5261,0.003263
1498.3898,0.003522
1500.2535,0.003467
1502.1171,0.003271
1503.9808,0.002956
1505.8445,0.003304
1507.7082,0.004373
1509.5718,0.003824
1511.4355,0.003402
1513.2992,0.003267
1515.1628,0.003023
1517.0265,0.003081
1518.8902,0.002889
1520.7538,0.003332
1522.6175,0.003754
1524.4812,0.003299
1526.3448,0.003072
1528.2085,0.003109
1530.0722,0.003046
1531.9359,0.002743
1533.7995,0.003087
1535.6632,0.002947
1537.5269,0.002495
1539.3905,0.002698
1541.2542,0.003232
1543.1179,0.003027
1544.9815,0.002921
1546.8452,0.002633
1548.7089,0.002529
1550.5725,0.002717
1552.4362,0.002540
1554.2999,0.002609
1556.1635,0.002215
1558.0272,0.002288
1559.8909,0.003408
1561.7546,0.002819
1563.6182,0.002311
1565.4819,0.002340
1567.3456,0.002146
1569.2092,0.002260
1571.0729,0.002488
1572.9366,0.002243
1574.8002,0.002117
1576.6639,0.002603
1578.5276,0.002634
1580.3912,0.002594
1582.2549,0.002511
1584.1186,0.002434
1585.9822,0.002475
1587.8459,0.002423
1589.7096,0.002413
1591.5733,0.002443
1593.4369,0.002463
1595.3006,0.002491
1597.1643,0.002505
1599.0279,0.002454
1600.8916,0.002426
1602.7553,0.002526
1604.6189,0.002695
1606.4826,0.002691
1608.3463,0.002693
1610.2099,0.002622
1612.0736,0.002626
1613.9373,0.002457
1615.8010,0.002716
1617.6646,0.003134
1619.5283,0.002821
1621.3920,0.002491
1623.2556,0.002806
1625.1193,0.002915
1626.9830,0.002801
1628.8466,0.002926
1630.7103,0.002870
1632.5740,0.002582
1634.4376,0.002507
1636.3013,0.002982
1638.1650,0.002904
1640.0286,0.002701
1641.8923,0.002539
1643.7560,0.002341
1645.6197,0.002188
1647.4833,0.002737
1649.3470,0.002644
1651.2107,0.002011
1653.0743,0.002551
1654.9380,0.002746
1656.8017,0.002249
1658.6653,0.002098
1660.5290,0.002084
1662.3927,0.002265
1664.2563,0.002262
1666.1200,0.001950
1667.9837,0.001756
1669.8474,0.002265
1671.7110,0.002259
1673.5747,0.001799
1675.4384,0.002049
1677.3020,0.002145
1679.1657,0.002100
1681.0294,0.001810
1682.8930,0.001687
1684.7567,0.002472
1686.6204,0.001994
1688.4840,0.001722
1690.3477,0.001768
1692.2114,0.001601
1694.0750,0.001216
1695.9387,0.001614
1697.8024,0.001544
1699.6661,0.001982
1701.5297,0.002124
1703.3934,0.001548
1705.2571,0.001379
1707.1207,0.001352
1708.9844,0.001271
1710.8481,0.001228
1712.7117,0.001193
1714.5754,0.001216
1716.4391,0.001490
1718.3027,0.001966
1720.1664,0.001514
1722.0301,0.001218
1723.8937,0.001115
1725.7574,0.001105
1727.6211,0.001042
1729.4848,0.001063
1731.3484,0.000850
1733.2121,0.000960
1735.0758,0.001669
1736.9394,0.001294
1738.8031,0.001184
1740.6668,0.001242
1742.5304,0.001234
1744.3941,0.001091
1746.2578,0.000897
1748.1214,0.000814
1749.9851,0.000849
1751.8488,0.001106
1753.7125,0.001006
1755.5761,0.000893
1757.4398,0.000958
1759.3035,0.000790
1761.1671,0.000846
1763.0308,0.001089
1764.8945,0.000943
1766.7581,0.000827
1768.6218,0.000917
1770.4855,0.000906
1772.3491,0.001283
1774.2128,0.001062
1776.0765,0.000725
1777.9401,0.000612
1779.8038,0.000869
1781.6675,0.001026
1783.5312,0.000993
1785.3948,0.001034
1787.2585,0.000874
1789.1222,0.000653
1790.9858,0.000806
1792.8495,0.001162
1794.7132,0.001057
1796.5768,0.000825
1798.4405,0.000685
1800.3042,0.000925
1802.1678,0.001029
1804.0315,0.000889
1805.8952,0.000790
1807.7589,0.000784
1809.6225,0.000720
1811.4862,0.000545
1813.3499,0.000444
1815.2135,0.000421
1817.0772,0.000277
1818.9409,0.000240
1820.8045,0.000446
1822.6682,0.000716
1824.5319,0.000840
1826.3955,0.000704
1828.2592,0.000656
1830.1229,0.000728
1831.9865,0.000497
1833.8502,0.000526
1835.7139,0.000476
1837.5776,0.000455
1839.4412,0.000627
1841.3049,0.000683
1843.1686,0.000676
1845.0322,0.000750
1846.8959,0.000757
1848.7596,0.000915
1850.6232,0.000937
1852.4869,0.000960
1854.3506,0.000688
1856.2142,0.000330
1858.0779,0.000222
1859.9416,0.000396
1861.8052,0.000661
1863.6689,0.000902
1865.5326,0.000671
1867.3963,0.000637
1869.2599,0.001053
1871.1236,0.000915
1872.9873,0.000514
1874.8509,0.000497
1876.7146,0.000484
1878.5783,0.000383
1880.4419,0.000390
1882.3056,0.000434
1884.1693,0.000594
1886.0329,0.000720
1887.8966,0.000469
1889.7603,0.000525
1891.6240,0.000599
1893.4876,0.000558
1895.3513,0.000527
1897.2150,0.000597
1899.0786,0.000744
1900.9423,0.000618
1902.8060,0.000458
1904.6696,0.000390
1906.5333,0.000160
1908.3970,0.000210
1910.2606,0.000486
1912.1243,0.000567
1913.9880,0.000337
1915.8516,0.000181
1917.7153,0.000519
1919.5790,0.000632
1921.4427,0.000156
1923.3063,0.000075
1925.1700,0.000338
1927.0337,0.000434
1928.8973,0.000237
1930.7610,0.000100
1932.6247,0.000010
1934.4883,-0.000116
1936.3520,-0.000098
1938.2157,-0.000037
1940.0793,-0.000105
1941.9430,0.000350
1943.8067,0.000498
1945.6704,0.000016
1947.5340,-0.000064
1949.3977,0.000228
1951.2614,0.000112
1953.1250,-0.000046
1954.9887,-0.000097
1956.8524,-0.000457
1958.7160,0.000052
1960.5797,0.000436
1962.4434,0.000060
1964.3070,0.000211
1966.1707,0.000126
1968.0344,0.000104
1969.8980,-0.000004
1971.7617,-0.000207
1973.6254,-0.000294
1975.4891,-0.000421
1977.3527,-0.000655
1979.2164,-0.000518
1981.0801,0.000144
1982.9437,0.000399
1984.8074,0.000387
1986.6711,0.000554
1988.5347,0.000261
1990.3984,-0.000284
1992.2621,-0.000142
1994.1257,0.000807
1995.9894,0.000795
1997.8531,0.000285
1999.7167,0.000383
2001.5804,0.000521
2003.4441,0.000253
2005.3078,-0.000555
2007.1714,-0.000838
2009.0351,-0.000378
2010.8988,-0.000515
2012.7624,-0.000345
2014.6261,0.000793
2016.4898,0.001591
2018.3534,0.000947
2020.2171,0.000020
2022.0808,-0.000101
2023.9444,-0.000207
2025.8081,-0.000556
2027.6718,-0.000439
2029.5355,0.000294
2031.3991,0.000552
2033.2628,0.000498
2035.1265,0.000736
2036.9901,0.000410
2038.8538,-0.000502
2040.7175,-0.001009
2042.5811,-0.000949
2044.4448,-0.000763
2046.3085,-0.000496
2048.1721,-0.000493
2050.0358,-0.000140
2051.8995,0.000193
2053.7631,0.000061
2055.6268,0.000051
2057.4905,-0.000170
2059.3542,-0.000615
2061.2178,-0.000816
2063.0815,-0.000827
2064.9452,-0.000596
2066.8088,-0.000819
2068.6725,-0.000802
2070.5362,-0.000270
2072.3998,-0.000230
2074.2635,-0.000519
2076.1272,-0.000569
2077.9908,-0.000420
2079.8545,-0.000331
2081.7182,-0.000286
2083.5819,-0.000252
2085.4455,-0.000118
2087.3092,-0.000185
2089.1729,-0.000359
2091.0365,-0.000440
2092.9002,-0.000791
2094.7639,-0.001249
2096.6275,-0.001061
2098.4912,-0.000625
2100.3549,-0.000557
2102.2185,-0.000582
2104.0822,-0.001056
2105.9459,-0.001162
2107.8095,-0.000523
2109.6732,-0.000289
2111.5369,-0.000590
2113.4006,-0.000555
2115.2642,-0.000354
2117.1279,-0.000419
2118.9916,-0.000704
2120.8552,-0.001033
2122.7189,-0.001128
2124.5826,-0.001099
2126.4462,-0.001239
2128.3099,-0.001688
2130.1736,-0.001683
2132.0372,-0.001412
2133.9009,-0.001516
2135.7646,-0.001479
2137.6282,-0.001373
2139.4919,-0.001177
2141.3556,-0.001099
2143.2193,-0.000834
2145.0829,-0.000594
2146.9466,-0.000999
2148.8103,-0.001436
2150.6739,-0.001249
2152.5376,-0.001257
2154.4013,-0.002097
2156.2649,-0.003403
2158.1286,-0.003360
2159.9923,-0.001456
2161.8559,0.000052
2163.7196,0.000593
2165.5833,0.000076
2167.4470,-0.000532
2169.3106,-0.000190
2171.1743,0.000267
2173.0380,0.000763
2174.9016,0.000273
2176.7653,-0.000725
2178.6290,-0.000230
2180.4926,-0.000359
2182.3563,-0.001125
2184.2200,-0.001001
2186.0836,-0.001380
2187.9473,-0.001495
2189.8110,-0.001267
2191.6746,-0.001573
2193.5383,-0.001260
2195.4020,-0.000606
2197.2657,-0.000590
2199.1293,-0.000338
2200.9930,-0.000290
2202.8567,-0.001266
2204.7203,-0.001731
2206.5840,-0.001007
2208.4477,-0.001202
2210.3113,-0.001715
2212.1750,-0.001212
2214.0387,-0.000875
2215.9023,-0.001008
2217.7660,-0.001306
2219.6297,-0.001476
2221.4934,-0.001691
2223.3570,-0.001565
2225.2207,-0.000762
2227.0844,-0.000488
2228.9480,-0.000997
2230.8117,-0.001325
2232.6754,-0.001194
2234.5390,-0.001097
2236.4027,-0.000879
2238.2664,-0.000533
2240.1300,-0.000788
2241.9937,-0.001189
2243.8574,-0.001191
2245.7210,-0.001325
2247.5847,-0.001395
2249.4484,-0.001325
2251.3121,-0.001077
2253.1757,-0.000897
2255.0394,-0.001031
2256.9031,-0.000994
2258.7667,-0.001112
2260.6304,-0.001245
2262.4941,-0.001175
2264.3577,-0.001028
2266.2214,-0.000857
2268.0851,-0.000835
2269.9487,-0.000784
2271.8124,-0.001110
2273.6761,-0.001775
2275.5397,-0.001713
2277.4034,-0.001204
2279.2671,-0.000787
2281.1308,-0.000405
2282.9944,-0.000616
2284.8581,-0.001029
2286.7218,-0.001043
2288.5854,-0.000883
2290.4491,-0.000747
2292.3128,-0.000718
2294.1764,-0.000686
2296.0401,-0.000474
2297.9038,-0.000468
2299.7674,-0.000629
2301.6311,-0.000531
2303.4948,-0.000112
2305.3585,0.000154
2307.2221,0.000112
2309.0858,0.000370
2310.9495,0.000577
2312.8131,0.000399
2314.6768,0.000466
2316.5405,0.001133
2318.4041,0.001780
2320.2678,0.002071
2322.1315,0.002577
2323.9951,0.002884
2325.8588,0.003111
2327.7225,0.003324
2329.5861,0.003134
2331.4498,0.003025
2333.3135,0.002899
2335.1772,0.002813
2337.0408,0.002967
2338.9045,0.003331
2340.7682,0.003644
2342.6318,0.003507
2344.4955,0.003148
2346.3592,0.002386
2348.2228,0.001163
2350.0865,0.001137
2351.9502,0.002300
2353.8138,0.003274
2355.6775,0.003971
2357.5412,0.004798
2359.4049,0.005262
2361.2685,0.004942
2363.1322,0.004364
2364.9959,0.003837
2366.8595,0.003546
2368.7232,0.003269
2370.5869,0.002980
2372.4505,0.002476
2374.3142,0.001774
2376.1779,0.001218
2378.0415,0.000311
2379.9052,-0.000879
2381.7689,-0.001660
2383.6325,-0.001913
2385.4962,-0.002104
2387.3599,-0.002418
2389.2236,-0.002420
2391.0872,-0.002210
2392.9509,-0.002421
2394.8146,-0.002775
2396.6782,-0.002544
2398.5419,-0.002285
2400.4056,-0.002526
2402.2692,-0.002787
2404.1329,-0.002785
2405.9966,-0.002636
2407.8602,-0.002448
2409.7239,-0.002452
2411.5876,-0.002285
2413.4512,-0.002024
2415.3149,-0.002246
2417.1786,-0.002713
2419.0423,-0.002746
2420.9059,-0.002458
2422.7696,-0.002169
2424.6333,-0.002294
2426.4969,-0.002553
2428.3606,-0.002310
2430.2243,-0.002197
2432.0879,-0.002513
2433.9516,-0.002492
2435.8153,-0.002243
2437.6789,-0.002267
2439.5426,-0.002226
2441.4063,-0.002186
2443.2700,-0.002125
2445.1336,-0.002156
2446.9973,-0.002202
2448.8610,-0.001973
2450.7246,-0.002111
2452.5883,-0.002423
2454.4520,-0.002302
2456.3156,-0.002218
2458.1793,-0.002379
2460.0430,-0.002480
2461.9066,-0.002342
2463.7703,-0.002077
2465.6340,-0.001961
2467.4976,-0.002209
2469.3613,-0.002525
2471.2250,-0.002409
2473.0887,-0.002291
2474.9523,-0.002478
2476.8160,-0.002605
2478.6797,-0.002540
2480.5433,-0.002491
2482.4070,-0.002460
2484.2707,-0.002326
2486.1343,-0.002341
2487.9980,-0.002456
2489.8617,-0.002347
2491.7253,-0.002404
2493.5890,-0.002752
2495.4527,-0.002880
2497.3164,-0.002827
2499.1800,-0.002744
2501.0437,-0.002519
2502.9074,-0.002396
2504.7710,-0.002514
2506.6347,-0.002622
2508.4984,-0.002468
2510.3620,-0.002291
2512.2257,-0.002538
2514.0894,-0.002820
2515.9530,-0.002947
2517.8167,-0.002813
2519.6804,-0.002279
2521.5440,-0.002114
2523.4077,-0.002486
2525.2714,-0.002705
2527.1351,-0.002481
2528.9987,-0.002248
2530.8624,-0.002435
2532.7261,-0.002590
2534.5897,-0.002714
2536.4534,-0.002699
2538.3171,-0.002553
2540.1807,-0.002737
2542.0444,-0.002693
2543.9081,-0.002731
2545.7717,-0.003172
2547.6354,-0.003212
2549.4991,-0.002823
2551.3627,-0.002577
2553.2264,-0.002557
2555.0901,-0.002435
2556.9538,-0.002589
2558.8174,-0.002795
2560.6811,-0.002705
2562.5448,-0.002553
2564.4084,-0.002388
2566.2721,-0.002500
2568.1358,-0.002666
2569.9994,-0.002703
2571.8631,-0.002587
2573.7268,-0.002462
2575.5904,-0.002531
2577.4541,-0.002834
2579.3178,-0.003117
2581.1815,-0.003248
2583.0451,-0.002966
2584.9088,-0.002447
2586.7725,-0.002561
2588.6361,-0.002966
2590.4998,-0.002716
2592.3635,-0.002635
2594.2271,-0.002980
2596.0908,-0.002815
2597.9545,-0.002552
2599.8181,-0.002562
2601.6818,-0.002630
2603.5455,-0.002670
2605.4091,-0.002765
2607.2728,-0.003013
2609.1365,-0.003221
2611.0002,-0.003245
2612.8638,-0.002953
2614.7275,-0.002658
2616.5912,-0.002744
2618.4548,-0.002995
2620.3185,-0.002790
2622.1822,-0.002488
2624.0458,-0.002555
2625.9095,-0.002756
2627.7732,-0.002821
2629.6368,-0.002682
2631.5005,-0.002782
2633.3642,-0.003188
2635.2279,-0.003144
2637.0915,-0.002771
2638.9552,-0.002658
2640.8189,-0.002686
2642.6825,-0.002731
2644.5462,-0.002735
2646.4099,-0.002700
2648.2735,-0.002897
2650.1372,-0.003010
2652.0009,-0.002939
2653.8645,-0.002987
2655.7282,-0.002936
2657.5919,-0.003020
2659.4555,-0.003252
2661.3192,-0.003175
2663.1829,-0.003221
2665.0466,-0.003394
2666.9102,-0.003459
2668.7739,-0.003387
2670.6376,-0.003340
2672.5012,-0.003406
2674.3649,-0.003363
2676.2286,-0.003265
2678.0922,-0.003296
2679.9559,-0.003235
2681.8196,-0.003329
2683.6832,-0.003432
2685.5469,-0.003463
2687.4106,-0.003583
2689.2742,-0.003567
2691.1379,-0.003549
2693.0016,-0.003439
2694.8653,-0.003164
2696.7289,-0.003166
2698.5926,-0.003225
2700.4563,-0.003237
2702.3199,-0.003515
2704.1836,-0.003476
2706.0473,-0.003280
2707.9109,-0.003485
2709.7746,-0.003580
2711.6383,-0.003293
2713.5019,-0.003195
2715.3656,-0.003319
2717.2293,-0.003495
2719.0930,-0.003771
2720.9566,-0.003828
2722.8203,-0.003602
2724.6840,-0.003660
2726.5476,-0.003822
2728.4113,-0.003704
2730.2750,-0.003535
2732.1386,-0.003464
2734.0023,-0.003542
2735.8660,-0.003635
2737.7296,-0.003777
2739.5933,-0.003697
2741.4570,-0.003455
2743.3206,-0.003344
2745.1843,-0.003385
2747.0480,-0.003454
2748.9117,-0.003427
2750.7753,-0.003542
2752.6390,-0.003673
2754.5027,-0.003496
2756.3663,-0.003192
2758.2300,-0.003135
2760.0937,-0.003350
2761.9573,-0.003557
2763.8210,-0.003703
2765.6847,-0.003812
2767.5483,-0.003797
2769.4120,-0.003578
2771.2757,-0.003425
2773.1394,-0.003608
2775.0030,-0.003952
2776.8667,-0.003939
2778.7304,-0.003704
2780.5940,-0.003690
2782.4577,-0.003626
2784.3214,-0.003432
2786.1850,-0.003418
2788.0487,-0.003526
2789.9124,-0.003649
2791.7760,-0.003568
2793.6397,-0.003424
2795.5034,-0.003738
2797.3670,-0.003989
2799.2307,-0.003677
2801.0944,-0.003224
2802.9581,-0.003412
2804.8217,-0.003723
2806.6854,-0.003699
2808.5491,-0.003688
2810.4127,-0.003697
2812.2764,-0.003598
2814.1401,-0.003609
2816.0037,-0.003757
2817.8674,-0.003707
2819.7311,-0.003599
2821.5947,-0.003494
2823.4584,-0.003739
2825.3221,-0.004020
2827.1857,-0.003694
2829.0494,-0.003302
2830.9131,-0.003340
2832.7768,-0.003448
2834.6404,-0.003489
2836.5041,-0.003561
2838.3678,-0.003638
2840.2314,-0.003771
2842.0951,-0.003891
2843.9588,-0.003810
2845.8224,-0.003585
2847.6861,-0.003507
2849.5498,-0.003571
2851.4134,-0.003592
2853.2771,-0.003521
2855.1408,-0.003440
2857.0045,-0.003483
2858.8681,-0.003558
2860.7318,-0.003347
2862.5955,-0.003463
2864.4591,-0.003719
2866.3228,-0.003433
2868.1865,-0.003275
2870.0501,-0.003425
2871.9138,-0.003569
2873.7775,-0.003553
2875.6411,-0.003354
2877.5048,-0.003550
2879.3685,-0.003542
2881.2321,-0.003223
2883.0958,-0.003434
2884.9595,-0.003813
2886.8232,-0.003600
2888.6868,-0.003130
2890.5505,-0.003233
2892.4142,-0.003710
2894.2778,-0.003538
2896.1415,-0.003241
2898.0052,-0.003219
2899.8688,-0.002951
2901.7325,-0.002831
2903.5962,-0.003525
2905.4598,-0.004142
2907.3235,-0.004082
2909.1872,-0.003699
2911.0509,-0.003317
2912.9145,-0.003215
2914.7782,-0.003037
2916.6419,-0.002742
2918.5055,-0.002912
2920.3692,-0.003450
2922.2329,-0.003624
2924.0965,-0.003606
2925.9602,-0.003445
2927.8239,-0.003347
2929.6875,-0.003197
2931.5512,-0.003096
2933.4149,-0.003341
2935.2785,-0.003220
2937.1422,-0.003294
2939.0059,-0.003298
2940.8696,-0.003186
2942.7332,-0.003573
2944.5969,-0.003592
2946.4606,-0.003312
2948.3242,-0.003397
2950.1879,-0.003426
2952.0516,-0.003547
2953.9152,-0.003431
2955.7789,-0.003209
2957.6426,-0.003029
2959.5062,-0.002983
2961.3699,-0.003389
2963.2336,-0.003428
2965.0972,-0.003309
2966.9609,-0.003283
2968.8246,-0.003310
2970.6883,-0.003588
2972.5519,-0.003512
2974.4156,-0.003591
2976.2793,-0.003738
2978.1429,-0.003586
2980.0066,-0.003555
2981.8703,-0.003091
2983.7339,-0.002862
2985.5976,-0.003551
2987.4613,-0.003698
2989.3249,-0.003278
2991.1886,-0.003413
2993.0523,-0.003606
2994.9160,-0.003386
2996.7796,-0.003278
2998.6433,-0.003262
3000.5070,-0.002953
3002.3706,-0.002810
3004.2343,-0.003140
3006.0980,-0.003164
3007.9616,-0.002942
3009.8253,-0.003497
3011.6890,-0.003696
3013.5526,-0.003282
3015.4163,-0.003076
3017.2800,-0.003189
3019.1436,-0.003066
3021.0073,-0.003103
3022.8710,-0.003606
3024.7347,-0.003723
3026.5983,-0.003480
3028.4620,-0.003401
3030.3257,-0.003492
3032.1893,-0.003508
3034.0530,-0.003796
3035.9167,-0.003994
3037.7803,-0.003696
3039.6440,-0.003218
3041.5077,-0.003234
3043.3713,-0.003402
3045.2350,-0.003266
3047.0987,-0.003443
3048.9624,-0.003468
3050.8260,-0.003160
3052.6897,-0.003498
3054.5534,-0.003680
3056.4170,-0.003569
3058.2807,-0.003453
3060.1444,-0.003126
3062.0080,-0.002562
3063.8717,-0.002624
3065.7354,-0.003320
3067.5990,-0.003278
3069.4627,-0.002800
3071.3264,-0.002989
3073.1900,-0.003475
3075.0537,-0.003756
3076.9174,-0.003723
3078.7811,-0.003448
3080.6447,-0.003434
3082.5084,-0.003634
3084.3721,-0.003500
3086.2357,-0.003218
3088.0994,-0.003276
3089.9631,-0.003165
3091.8267,-0.002716
3093.6904,-0.002548
3095.5541,-0.002897
3097.4177,-0.003089
3099.2814,-0.003302
3101.1451,-0.003786
3103.0087,-0.003534
3104.8724,-0.002930
3106.7361,-0.002863
3108.5998,-0.003156
3110.4634,-0.003600
3112.3271,-0.003806
3114.1908,-0.003731
3116.0544,-0.003817
3117.9181,-0.003593
3119.7818,-0.003136
3121.6454,-0.002845
3123.5091,-0.002749
3125.3728,-0.002709
3127.2364,-0.003095
3129.1001,-0.003728
3130.9638,-0.003691
3132.8275,-0.003333
3134.6911,-0.003372
3136.5548,-0.003457
3138.4185,-0.003323
3140.2821,-0.003091
3142.1458,-0.002797
3144.0095,-0.002598
3145.8731,-0.003032
3147.7368,-0.003698
3149.6005,-0.003732
3151.4641,-0.003275
3153.3278,-0.002880
3155.1915,-0.003100
3157.0551,-0.003060
3158.9188,-0.002631
3160.7825,-0.002711
3162.6462,-0.003333
3164.5098,-0.003317
3166.3735,-0.002856
3168.2372,-0.002810
3170.1008,-0.002788
3171.9645,-0.002738
3173.8282,-0.003009
3175.6918,-0.003331
3177.5555,-0.002858
3179.4192,-0.003180
3181.2828,-0.003352
3183.1465,-0.002949
3185.0102,-0.003051
3186.8739,-0.002988
3188.7375,-0.002618
3190.6012,-0.003148
3192.4649,-0.003289
3194.3285,-0.002735
3196.1922,-0.002874
3198.0559,-0.003648
3199.9195,-0.003522
3201.7832,-0.002714
3203.6469,-0.002365
3205.5105,-0.002783
3207.3742,-0.003163
3209.2379,-0.003440
3211.1015,-0.003194
3212.9652,-0.002756
3214.8289,-0.002508
3216.6926,-0.002829
3218.5562,-0.003545
3220.4199,-0.003579
3222.2836,-0.002607
3224.1472,-0.002087
3226.0109,-0.002127
3227.8746,-0.002279
3229.7382,-0.002531
3231.6019,-0.002878
3233.4656,-0.003908
3235.3292,-0.004154
3237.1929,-0.003219
3239.0566,-0.002571
3240.9202,-0.002110
3242.7839,-0.002013
3244.6476,-0.001835
3246.5113,-0.001911
3248.3749,-0.001989
3250.2386,-0.002736
3252.1023,-0.003691
3253.9659,-0.003539
3255.8296,-0.002851
3257.6933,-0.002646
3259.5569,-0.002282
3261.4206,-0.002264
3263.2843,-0.002642
3265.1479,-0.002567
3267.0116,-0.002193
3268.8753,-0.002394
3270.7390,-0.002576
3272.6026,-0.002396
3274.4663,-0.002008
3276.3300,-0.002032
3278.1936,-0.002983
3280.0573,-0.003100
3281.9210,-0.002472
3283.7846,-0.002187
3285.6483,-0.002214
3287.5120,-0.002062
3289.3756,-0.002660
3291.2393,-0.002999
3293.1030,-0.002564
3294.9666,-0.002658
3296.8303,-0.002848
3298.6940,-0.002605
3300.5577,-0.002499
3302.4213,-0.002267
3304.2850,-0.002193
3306.1487,-0.002349
3308.0123,-0.002692
3309.8760,-0.002986
3311.7397,-0.002478
3313.6033,-0.001890
3315.4670,-0.001621
3317.3307,-0.001985
3319.1943,-0.002298
3321.0580,-0.001971
3322.9217,-0.001460
3324.7854,-0.001627
3326.6490,-0.002426
3328.5127,-0.002797
3330.3764,-0.002489
3332.2400,-0.002254
3334.1037,-0.001663
3335.9674,-0.001788
3337.8310,-0.002578
3339.6947,-0.002164
3341.5584,-0.001508
3343.4220,-0.001674
3345.2857,-0.002458
3347.1494,-0.002420
3349.0130,-0.001950
3350.8767,-0.002308
3352.7404,-0.002375
3354.6041,-0.001556
3356.4677,-0.001404
3358.3314,-0.002440
3360.1951,-0.002830
3362.0587,-0.002785
3363.9224,-0.002794
3365.7861,-0.002365
3367.6497,-0.001792
3369.5134,-0.001743
3371.3771,-0.001913
3373.2407,-0.001750
3375.1044,-0.001701
3376.9681,-0.002949
3378.8317,-0.003144
3380.6954,-0.001599
3382.5591,-0.001005
3384.4228,-0.001403
3386.2864,-0.001819
3388.1501,-0.001826
3390.0138,-0.001692
3391.8774,-0.002063
3393.7411,-0.001893
3395.6048,-0.002386
3397.4684,-0.003201
3399.3321,-0.002940
3401.1958,-0.002504
3403.0594,-0.002412
3404.9231,-0.001587
3406.7868,-0.000417
3408.6505,-0.000823
3410.5141,-0.001975
3412.3778,-0.001232
3414.2415,-0.001069
3416.1051,-0.002224
3417.9688,-0.001448
3419.8325,-0.000686
3421.6961,-0.001895
3423.5598,-0.002428
3425.4235,-0.002767
3427.2871,-0.002552
3429.1508,-0.001863
3431.0145,-0.001507
3432.8781,-0.001723
3434.7418,-0.001579
3436.6055,-0.001025
3438.4692,-0.001608
3440.3328,-0.002789
3442.1965,-0.002102
3444.0602,-0.000709
3445.9238,-0.000822
3447.7875,-0.002229
3449.6512,-0.002774
3451.5148,-0.002256
3453.3785,-0.001881
3455.2422,-0.002129
3457.1058,-0.001774
3458.9695,-0.001410
3460.8332,-0.001657
3462.6969,-0.001647
3464.5605,-0.001936
3466.4242,-0.001891
3468.2879,-0.001947
3470.1515,-0.001238
3472.0152,-0.000353
3473.8789,-0.000822
3475.7425,-0.001796
3477.6062,-0.002331
3479.4699,-0.002852
3481.3335,-0.002629
3483.1972,-0.000843
3485.0609,-0.000292
3486.9245,-0.001112
3488.7882,-0.001397
3490.6519,-0.001375
3492.5156,-0.001831
3494.3792,-0.001921
3496.2429,-0.001826
3498.1066,-0.001850
3499.9702,-0.002139
3501.8339,-0.001672
3503.6976,-0.000899
3505.5612,-0.001165
3507.4249,-0.001978
3509.2886,-0.002100
3511.1522,-0.001579
3513.0159,-0.000121
3514.8796,0.000006
3516.7432,-0.001477
3518.6069,-0.001932
3520.4706,-0.001084
3522.3343,-0.000949
3524.1979,-0.002432
3526.0616,-0.002069
3527.9253,-0.001696
3529.7889,-0.001234
3531.6526,-0.000052
3533.5163,-0.000284
3535.3799,-0.001141
3537.2436,-0.001715
3539.1073,-0.001181
3540.9709,-0.000963
3542.8346,-0.001869
3544.6983,-0.002213
3546.5620,-0.001135
3548.4256,-0.000226
3550.2893,-0.000757
3552.1530,-0.001542
3554.0166,-0.000593
3555.8803,-0.000035
3557.7440,-0.000438
3559.6076,-0.001254
3561.4713,-0.000927
3563.3350,0.000405
3565.1986,-0.000472
3567.0623,-0.001507
3568.9260,-0.001322
3570.7896,-0.000440
3572.6533,-0.000886
3574.5170,-0.001449
3576.3807,-0.001420
3578.2443,0.000015
3580.1080,0.000620
3581.9717,-0.000853
3583.8353,-0.001497
3585.6990,-0.001123
3587.5627,-0.000486
3589.4263,-0.000162
3591.2900,-0.000451
3593.1537,-0.000409
3595.0173,-0.000491
3596.8810,0.000272
3598.7447,0.000530
3600.6084,-0.000576
3602.4720,-0.000295
3604.3357,0.000583
3606.1994,0.000171
3608.0630,-0.000306
3609.9267,0.000554
3611.7904,0.000165
3613.6540,-0.001126
3615.5177,-0.000259
3617.3814,0.000390
3619.2450,-0.000026
3621.1087,0.000196
3622.9724,0.000275
3624.8360,0.000028
3626.6997,-0.000127
3628.5634,-0.000226
3630.4271,-0.000342
3632.2907,0.000711
3634.1544,0.000495
3636.0181,0.000175
3637.8817,0.000389
3639.7454,0.000986
3641.6091,0.001193
3643.4727,0.000771
3645.3364,0.000294
3647.2001,-0.000619
3649.0637,-0.001154
3650.9274,-0.000610
3652.7911,0.000265
3654.6547,-0.000039
3656.5184,-0.000492
3658.3821,0.000357
3660.2458,0.000934
3662.1094,0.000802
3663.9731,0.000612
3665.8368,-0.000132
3667.7004,-0.000344
3669.5641,0.000511
3671.4278,0.001652
3673.2914,0.001313
3675.1551,-0.000010
3677.0188,0.000835
3678.8824,0.001941
3680.7461,0.000988
3682.6098,0.001218
3684.4735,0.000870
3686.3371,0.000447
3688.2008,0.000257
3690.0645,0.000319
3691.9281,0.001234
3693.7918,0.000990
3695.6555,0.000727
3697.5191,0.000536
3699.3828,0.000443
3701.2465,0.000701
3703.1101,0.001401
3704.9738,0.001768
3706.8375,0.001014
3708.7011,0.000345
3710.5648,0.000631
3712.4285,0.000913
3714.2922,0.000983
3716.1558,0.001325
3718.0195,0.001181
3719.8832,0.000778
3721.7468,0.001043
3723.6105,0.001740
3725.4742,0.002045
3727.3378,0.001891
3729.2015,0.002115
3731.0652,0.001383
3732.9288,0.000119
3734.7925,0.000609
3736.6562,0.000911
3738.5199,0.001172
3740.3835,0.001278
3742.2472,0.001182
3744.1109,0.001056
3745.9745,0.000938
3747.8382,0.001286
3749.7019,0.000046
3751.5655,-0.000016
3753.4292,0.001645
3755.2929,0.002410
3757.1565,0.001571
3759.0202,0.001105
3760.8839,0.001057
3762.7475,0.000750
3764.6112,0.000871
3766.4749,0.000899
3768.3386,0.000826
3770.2022,0.000773
3772.0659,0.001131
3773.9296,0.001736
3775.7932,0.001875
3777.6569,0.001773
3779.5206,0.001110
3781.3842,0.001118
3783.2479,0.002113
3785.1116,0.001562
3786.9752,0.001232
3788.8389,0.001679
3790.7026,0.001864
3792.5662,0.001685
3794.4299,0.001547
3796.2936,0.001830
3798.1573,0.001753
3800.0209,0.001412
3801.8846,0.001029
3803.7483,0.001577
3805.6119,0.001647
3807.4756,0.001040
3809.3393,0.002136
3811.2029,0.002425
3813.0666,0.001256
3814.9303,0.001341
3816.7939,0.001400
3818.6576,0.001800
3820.5213,0.000708
3822.3850,-0.000022
3824.2486,0.002117
3826.1123,0.001853
3827.9760,0.001249
3829.8396,0.002278
3831.7033,0.002015
3833.5670,0.001572
3835.4306,0.002175
3837.2943,0.002161
3839.1580,0.001725
3841.0216,0.001569
3842.8853,0.001775
3844.7490,0.001935
3846.6126,0.001665
3848.4763,0.001412
3850.3400,0.001443
3852.2037,0.000616
3854.0673,0.000127
3855.9310,0.002142
3857.7947,0.003010
3859.6583,0.002688
3861.5220,0.002171
3863.3857,0.001095
3865.2493,0.001366
3867.1130,0.002311
3868.9767,0.002206
3870.8403,0.001245
3872.7040,0.002274
3874.5677,0.002990
3876.4314,0.003399
3878.2950,0.002545
3880.1587,0.001097
3882.0224,0.001475
3883.8860,0.002002
3885.7497,0.001488
3887.6134,0.001913
3889.4770,0.002460
3891.3407,0.001617
3893.2044,0.001446
3895.0680,0.002016
3896.9317,0.002069
3898.7954,0.001753
3900.6590,0.001474
3902.5227,0.001889
3904.3864,0.001926
3906.2501,0.002733
3908.1137,0.003088
3909.9774,0.002490
3911.8411,0.002203
3913.7047,0.001673
3915.5684,0.001680
3917.4321,0.002538
3919.2957,0.002535
3921.1594,0.002087
3923.0231,0.001689
3924.8867,0.001737
3926.7504,0.002015
3928.6141,0.002323
3930.4777,0.002008
3932.3414,0.001886
3934.2051,0.002073
3936.0688,0.002420
3937.9324,0.002502
3939.7961,0.001571
3941.6598,0.001628
3943.5234,0.002744
3945.3871,0.002885
3947.2508,0.002565
3949.1144,0.002319
3950.9781,0.002103
3952.8418,0.001923
3954.7054,0.002471
3956.5691,0.002983
3958.4328,0.002738
3960.2965,0.002090
3962.1601,0.001481
3964.0238,0.001897
3965.8875,0.002735
3967.7511,0.002880
3969.6148,0.002478
3971.4785,0.002081
3973.3421,0.002236
3975.2058,0.001846
3977.0695,0.002154
3978.9331,0.002691
3980.7968,0.002158
3982.6605,0.002159
3984.5241,0.002404
3986.3878,0.002091
3988.2515,0.002376
3990.1152,0.002724
3991.9788,0.002717
3993.8425,0.002493
3995.7062,0.002451
3997.5698,0.002447
3999.4335,0.002886
4001.2972,0.003023
4003.1608,0.002378
4005.0245,0.002207
4006.8882,0.002543
4008.7518,0.003187
4010.6155,0.003592
4012.4792,0.003399
4014.3429,0.002599
4016.2065,0.002486
4018.0702,0.003107
4019.9339,0.002856
4021.7975,0.002282
4023.6612,0.002766
4025.5249,0.002968
4027.3885,0.002327
4029.2522,0.001819
4031.1159,0.002467
4032.9795,0.002592
4034.8432,0.002579
4036.7069,0.003007
4038.5705,0.003076
4040.4342,0.002978
4042.2979,0.002774
4044.1616,0.003072
4046.0252,0.002772
4047.8889,0.002473
4049.7526,0.002892
4051.6162,0.003172
4053.4799,0.003001
4055.3436,0.002785
4057.2072,0.002987
4059.0709,0.002801
4060.9346,0.002978
4062.7982,0.003412
4064.6619,0.003460
4066.5256,0.003138
4068.3892,0.002677
4070.2529,0.002764
4072.1166,0.002968
4073.9803,0.003090
4075.8439,0.003578
4077.7076,0.003338
4079.5713,0.003157
4081.4349,0.002889
4083.2986,0.002985
4085.1623,0.003331
4087.0259,0.002977
4088.8896,0.002640
4090.7533,0.002829
4092.6169,0.002979
4094.4806,0.003007
4096.3443,0.002733
4098.2080,0.002874
4100.0716,0.003158
