Wavenumber,Intensity
650.4205,0.194228
652.2841,0.190528
654.1478,0.186711
656.0115,0.184453
657.8751,0.184074
659.7388,0.183560
661.6025,0.182365
663.4661,0.183316
665.3298,0.184933
667.1935,0.185444
669.0571,0.183148
670.9208,0.182313
672.7845,0.182002
674.6481,0.180962
676.5118,0.180462
678.3755,0.178882
680.2392,0.175886
682.1028,0.173651
683.9665,0.171721
685.8302,0.168920
687.6938,0.165667
689.5575,0.161593
691.4212,0.157593
693.2848,0.155175
695.1485,0.152984
697.0122,0.150248
698.8758,0.148480
700.7395,0.147841
702.6032,0.147568
704.4669,0.147420
706.3305,0.148077
708.1942,0.149703
710.0579,0.151864
711.9215,0.154351
713.7852,0.156119
715.6489,0.158253
717.5125,0.161204
719.3762,0.163227
721.2399,0.164723
723.1035,0.166050
724.9672,0.166230
726.8309,0.165310
728.6945,0.164059
730.5582,0.162628
732.4219,0.160734
734.2856,0.159772
736.1492,0.160169
738.0129,0.160357
739.8766,0.159883
741.7402,0.158994
743.6039,0.158243
745.4676,0.157995
747.3312,0.157343
749.1949,0.156566
751.0586,0.156111
752.9222,0.155997
754.7859,0.156403
756.6496,0.156703
758.5132,0.157046
760.3769,0.156736
762.2406,0.155295
764.1043,0.153705
765.9679,0.152012
767.8316,0.149899
769.6953,0.147567
771.5589,0.145788
773.4226,0.144661
775.2863,0.143285
777.1499,0.142137
779.0136,0.141618
780.8773,0.140980
782.7409,0.140631
784.6046,0.141013
786.4683,0.141172
788.3320,0.140945
790.1956,0.140482
792.0593,0.139896
793.9230,0.139527
795.7866,0.139605
797.6503,0.140056
799.5140,0.140737
801.3776,0.141647
803.2413,0.142689
805.1050,0.143873
806.9686,0.145200
808.8323,0.146831
810.6960,0.148182
812.5596,0.149578
814.4233,0.151524
816.2870,0.152912
818.1507,0.153616
820.0143,0.154094
821.8780,0.154188
823.7417,0.154505
825.6053,0.155112
827.4690,0.155838
829.3327,0.157012
831.1963,0.158645
833.0600,0.160657
834.9237,0.163351
836.7873,0.166766
838.6510,0.170090
840.5147,0.173565
842.3784,0.178006
844.2420,0.182925
846.1057,0.187756
847.9694,0.192962
849.8330,0.198365
851.6967,0.203552
853.5604,0.208669
855.4240,0.214118
857.2877,0.219796
859.1514,0.225127
861.0150,0.230313
862.8787,0.235522
864.7424,0.240461
866.6060,0.245050
868.4697,0.249265
870.3334,0.253264
872.1971,0.256944
874.0607,0.260486
875.9244,0.264377
877.7881,0.268246
879.6517,0.271836
881.5154,0.275832
883.3791,0.280382
885.2427,0.285313
887.1064,0.290278
888.9701,0.295609
890.8337,0.301603
892.6974,0.307922
894.5611,0.314107
896.4247,0.320364
898.2884,0.326804
900.1521,0.333107
902.0158,0.339242
903.8794,0.345303
905.7431,0.350980
907.6068,0.356389
909.4704,0.361417
911.3341,0.366144
913.1978,0.370566
915.0614,0.374649
916.9251,0.378503
918.7888,0.382277
920.6524,0.386102
922.5161,0.389830
924.3798,0.393324
926.2435,0.396819
928.1071,0.400504
929.9708,0.404460
931.8345,0.408600
933.6981,0.413060
935.5618,0.417592
937.4255,0.421926
939.2891,0.426135
941.1528,0.430251
943.0165,0.433959
944.8801,0.436799
946.7438,0.438474
948.6075,0.439370
950.4711,0.439502
952.3348,0.438439
954.1985,0.436294
956.0622,0.433527
957.9258,0.430162
959.7895,0.426449
961.6532,0.422580
963.5168,0.418689
965.3805,0.414873
967.2442,0.411252
969.1078,0.408398
970.9715,0.406192
972.8352,0.404176
974.6988,0.402162
976.5625,0.400319
978.4262,0.398734
980.2899,0.396829
982.1535,0.394387
984.0172,0.391483
985.8809,0.388280
987.7445,0.384356
989.6082,0.379369
991.4719,0.373532
993.3355,0.367132
995.1992,0.360363
997.0629,0.353130
998.9265,0.345403
1000.7902,0.337518
1002.6539,0.329589
1004.5175,0.321608
1006.3812,0.313504
1008.2449,0.305283
1010.1086,0.296875
1011.9722,0.288374
1013.8359,0.280069
1015.6996,0.271806
1017.5632,0.263548
1019.4269,0.255607
1021.2906,0.248008
1023.1542,0.240781
1025.0179,0.234113
1026.8816,0.227815
1028.7452,0.221457
1030.6089,0.215190
1032.4726,0.209351
1034.3362,0.203763
1036.1999,0.198139
1038.0636,0.192610
1039.9273,0.187434
1041.7909,0.182513
1043.6546,0.177735
1045.5183,0.173246
1047.3819,0.169158
1049.2456,0.165434
1051.1093,0.161918
1052.9729,0.158541
1054.8366,0.155412
1056.7003,0.152576
1058.5639,0.149849
1060.4276,0.147174
1062.2913,0.144600
1064.1550,0.142074
1066.0186,0.139656
1067.8823,0.137341
1069.7460,0.134922
1071.6096,0.132415
1073.4733,0.129977
1075.3370,0.127561
1077.2006,0.125061
1079.0643,0.122496
1080.9280,0.119972
1082.7916,0.117505
1084.6553,0.115062
1086.5190,0.112586
1088.3826,0.110107
1090.2463,0.107729
1092.1100,0.105322
1093.9737,0.102835
1095.8373,0.100262
1097.7010,0.097614
1099.5647,0.095111
1101.4283,0.092702
1103.2920,0.090148
1105.1557,0.087599
1107.0193,0.085179
1108.8830,0.082769
1110.7467,0.080452
1112.6103,0.078183
1114.4740,0.075788
1116.3377,0.073578
1118.2014,0.071574
1120.0650,0.069498
1121.9287,0.067599
1123.7924,0.066031
1125.6560,0.064633
1127.5197,0.063269
1129.3834,0.061915
1131.2470,0.060649
1133.1107,0.059512
1134.9744,0.058545
1136.8380,0.057655
1138.7017,0.056784
1140.5654,0.055895
1142.4290,0.054995
1144.2927,0.054105
1146.1564,0.053244
1148.0201,0.052404
1149.8837,0.051613
1151.7474,0.050886
1153.6111,0.049967
1155.4747,0.048953
1157.3384,0.048102
1159.2021,0.047231
1161.0657,0.046159
1162.9294,0.044942
1164.7931,0.043687
1166.6567,0.042483
1168.5204,0.041248
1170.3841,0.039949
1172.2477,0.038641
1174.1114,0.037374
1175.9751,0.036190
1177.8388,0.034970
1179.7024,0.033689
1181.5661,0.032431
1183.4298,0.031184
1185.2934,0.029917
1187.1571,0.028701
1189.0208,0.027543
1190.8844,0.026334
1192.7481,0.025146
1194.6118,0.024021
1196.4754,0.022955
1198.3391,0.021963
1200.2028,0.020983
1202.0665,0.020006
1203.9301,0.019154
1205.7938,0.018484
1207.6575,0.017835
1209.5211,0.017095
1211.3848,0.016332
1213.2485,0.015708
1215.1121,0.015184
1216.9758,0.014681
1218.8395,0.014273
1220.7031,0.013954
1222.5668,0.013709
1224.4305,0.013436
1226.2941,0.013097
1228.1578,0.012820
1230.0215,0.012571
1231.8852,0.012374
1233.7488,0.012214
1235.6125,0.012095
1237.4762,0.012006
1239.3398,0.011851
1241.2035,0.011700
1243.0672,0.011566
1244.9308,0.011404
1246.7945,0.011300
1248.6582,0.011217
1250.5218,0.011102
1252.3855,0.011003
1254.2492,0.010904
1256.1129,0.010780
1257.9765,0.010596
1259.8402,0.010349
1261.7039,0.010327
1263.5675,0.010383
1265.4312,0.010363
1267.2949,0.010414
1269.1585,0.010434
1271.0222,0.010397
1272.8859,0.010390
1274.7495,0.010404
1276.6132,0.010373
1278.4769,0.010382
1280.3405,0.010445
1282.2042,0.010443
1284.0679,0.010343
1285.9316,0.010248
1287.7952,0.010166
1289.6589,0.010208
1291.5226,0.010354
1293.3862,0.010375
1295.2499,0.010323
1297.1136,0.010321
1298.9772,0.010370
1300.8409,0.010366
1302.7046,0.010311
1304.5682,0.010296
1306.4319,0.010343
1308.2956,0.010372
1310.1592,0.010312
1312.0229,0.010269
1313.8866,0.010352
1315.7503,0.010502
1317.6139,0.010411
1319.4776,0.010304
1321.3413,0.010437
1323.2049,0.010560
1325.0686,0.010617
1326.9323,0.010678
1328.7959,0.010651
1330.6596,0.010627
1332.5233,0.010666
1334.3869,0.010700
1336.2506,0.010664
1338.1143,0.010644
1339.9780,0.010676
1341.8416,0.010863
1343.7053,0.010985
1345.5690,0.010997
1347.4326,0.011076
1349.2963,0.011172
1351.1600,0.011314
1353.0236,0.011359
1354.8873,0.011397
1356.7510,0.011531
1358.6146,0.011621
1360.4783,0.011496
1362.3420,0.011376
1364.2056,0.011712
1366.0693,0.012058
1367.9330,0.011980
1369.7967,0.012036
1371.6603,0.012134
1373.5240,0.012075
1375.3877,0.012240
1377.2513,0.012487
1379.1150,0.012501
1380.9787,0.012635
1382.8423,0.012858
1384.7060,0.012925
1386.5697,0.012665
1388.4333,0.012846
1390.2970,0.013301
1392.1607,0.013274
1394.0244,0.013079
1395.8880,0.013324
1397.7517,0.013547
1399.6154,0.013622
1401.4790,0.014074
1403.3427,0.014084
1405.2064,0.014147
1407.0700,0.014490
1408.9337,0.014661
1410.7974,0.014716
1412.6610,0.014867
1414.5247,0.014966
1416.3884,0.014794
1418.2520,0.014412
1420.1157,0.014751
1421.9794,0.015071
1423.8431,0.014860
1425.7067,0.015134
1427.5704,0.015143
1429.4341,0.014906
1431.2977,0.015090
1433.1614,0.015207
1435.0251,0.014886
1436.8887,0.014537
1438.7524,0.015042
1440.6161,0.015132
1442.4797,0.015117
1444.3434,0.015130
1446.2071,0.014960
1448.0707,0.014911
1449.9344,0.015116
1451.7981,0.015148
1453.6618,0.014911
1455.5254,0.014103
1457.3891,0.013427
1459.2528,0.014382
1461.1164,0.014670
1462.9801,0.014463
1464.8438,0.014186
1466.7074,0.014570
1468.5711,0.014583
1470.4348,0.014033
1472.2984,0.013126
1474.1621,0.013281
1476.0258,0.013369
1477.8895,0.013476
1479.7531,0.013636
1481.6168,0.013575
1483.4805,0.013606
1485.3441,0.013285
1487.2078,0.012732
1489.0715,0.012356
1490.9351,0.012484
1492.7988,0.013053
1494.6625,0.012701
1496.5261,0.011997
1498.3898,0.012101
1500.2535,0.012452
1502.1171,0.012587
1503.9808,0.011932
1505.8445,0.010353
1507.7082,0.010365
1509.5718,0.011523
1511.4355,0.011673
1513.2992,0.011681
1515.1628,0.011350
1517.0265,0.010997
1518.8902,0.011125
1520.7538,0.010379
1522.6175,0.010341
1524.4812,0.010774
1526.3448,0.010846
1528.2085,0.011368
1530.0722,0.011474
1531.9359,0.011207
1533.7995,0.010961
1535.6632,0.011581
1537.5269,0.010986
1539.3905,0.009545
1541.2542,0.009689
1543.1179,0.010205
1544.9815,0.010509
1546.8452,0.011181
1548.7089,0.011253
1550.5725,0.011158
1552.4362,0.011311
1554.2999,0.010840
1556.1635,0.010364
1558.0272,0.008577
1559.8909,0.008850
1561.7546,0.011029
1563.6182,0.011306
1565.4819,0.011383
1567.3456,0.011393
1569.2092,0.011075
1571.0729,0.011679
1572.9366,0.011974
1574.8002,0.011229
1576.6639,0.011087
1578.5276,0.012032
1580.3912,0.012218
1582.2549,0.012296
1584.1186,0.012425
1585.9822,0.012532
1587.8459,0.012715
1589.7096,0.012918
1591.5733,0.013132
1593.4369,0.013141
1595.3006,0.013222
1597.1643,0.013493
1599.0279,0.013661
1600.8916,0.013668
1602.7553,0.013915
1604.6189,0.014311
1606.4826,0.014645
1608.3463,0.014888
1610.2099,0.015253
1612.0736,0.015634
1613.9373,0.015791
1615.8010,0.015226
1617.6646,0.015746
1619.5283,0.016756
1621.3920,0.016884
1623.2556,0.016978
1625.1193,0.017915
1626.9830,0.018135
1628.8466,0.018343
1630.7103,0.019195
1632.5740,0.019413
1634.4376,0.018883
1636.3013,0.018980
1638.1650,0.019860
1640.0286,0.020226
1641.8923,0.020637
1643.7560,0.020681
1645.6197,0.020166
1647.4833,0.020000
1649.3470,0.020440
1651.2107,0.019587
1653.0743,0.017709
1654.9380,0.019000
1656.8017,0.019946
1658.6653,0.020035
1660.5290,0.019903
1662.3927,0.019572
1664.2563,0.019657
1666.1200,0.019529
1667.9837,0.018823
1669.8474,0.018179
1671.7110,0.018291
1673.5747,0.017899
1675.4384,0.017458
1677.3020,0.017996
1679.1657,0.017634
1681.0294,0.017097
1682.8930,0.016201
1684.7567,0.015404
1686.6204,0.016084
1688.4840,0.015737
1690.3477,0.015665
1692.2114,0.015627
1694.0750,0.015078
1695.9387,0.014257
1697.8024,0.014125
1699.6661,0.012671
1701.5297,0.013265
1703.3934,0.013700
1705.2571,0.013107
1707.1207,0.013401
1708.9844,0.013584
1710.8481,0.013446
1712.7117,0.013111
1714.5754,0.012468
1716.4391,0.011765
1718.3027,0.011784
1720.1664,0.012691
1722.0301,0.012622
1723.8937,0.012506
1725.7574,0.012615
1727.6211,0.012582
1729.4848,0.012512
1731.3484,0.012319
1733.2121,0.011427
1735.0758,0.011800
1736.9394,0.012490
1738.8031,0.011616
1740.6668,0.011773
1742.5304,0.011990
1744.3941,0.011893
1746.2578,0.011869
1748.1214,0.011536
1749.9851,0.011188
1751.8488,0.011404
1753.7125,0.011707
1755.5761,0.011440
1757.4398,0.011643
1759.3035,0.011717
1761.1671,0.011082
1763.0308,0.011321
1764.8945,0.011660
1766.7581,0.011244
1768.6218,0.011122
1770.4855,0.010944
1772.3491,0.010385
1774.2128,0.010924
1776.0765,0.011248
1777.9401,0.011301
1779.8038,0.011130
1781.6675,0.011260
1783.5312,0.011465
1785.3948,0.011556
1787.2585,0.011690
1789.1222,0.011341
1790.9858,0.010774
1792.8495,0.010881
1794.7132,0.011350
1796.5768,0.011334
1798.4405,0.011186
1800.3042,0.011134
1802.1678,0.011487
1804.0315,0.011758
1805.8952,0.011764
1807.7589,0.011766
1809.6225,0.011464
1811.4862,0.011223
1813.3499,0.011471
1815.2135,0.011437
1817.0772,0.011347
1818.9409,0.011629
1820.8045,0.011824
1822.6682,0.011704
1824.5319,0.011426
1826.3955,0.011444
1828.2592,0.011410
1830.1229,0.011311
1831.9865,0.011588
1833.8502,0.011353
1835.7139,0.011553
1837.5776,0.011875
1839.4412,0.011741
1841.3049,0.011431
1843.1686,0.010931
1845.0322,0.011087
1846.8959,0.011748
1848.7596,0.011547
1850.6232,0.011433
1852.4869,0.011509
1854.3506,0.011542
1856.2142,0.011372
1858.0779,0.011685
1859.9416,0.011746
1861.8052,0.011712
1863.6689,0.011946
1865.5326,0.011933
1867.3963,0.011344
1869.2599,0.011038
1871.1236,0.011490
1872.9873,0.011720
1874.8509,0.011911
1876.7146,0.012056
1878.5783,0.011940
1880.4419,0.011825
1882.3056,0.011614
1884.1693,0.011596
1886.0329,0.011710
1887.8966,0.011596
1889.7603,0.011400
1891.6240,0.011610
1893.4876,0.012007
1895.3513,0.012167
1897.2150,0.011778
1899.0786,0.011902
1900.9423,0.012055
1902.8060,0.011825
1904.6696,0.011863
1906.5333,0.011956
1908.3970,0.011647
1910.2606,0.011721
1912.1243,0.011930
1913.9880,0.011841
1915.8516,0.011777
1917.7153,0.011494
1919.5790,0.011478
1921.4427,0.011676
1923.3063,0.011587
1925.1700,0.011920
1927.0337,0.012257
1928.8973,0.012178
1930.7610,0.012005
1932.6247,0.011898
1934.4883,0.011923
1936.3520,0.011874
1938.2157,0.011852
1940.0793,0.011638
1941.9430,0.011616
1943.8067,0.011711
1945.6704,0.011301
1947.5340,0.011340
1949.3977,0.011832
1951.2614,0.012014
1953.1250,0.011540
1954.9887,0.011502
1956.8524,0.011472
1958.7160,0.011521
1960.5797,0.011525
1962.4434,0.011344
1964.3070,0.011747
1966.1707,0.011270
1968.0344,0.010363
1969.8980,0.011001
1971.7617,0.011422
1973.6254,0.011047
1975.4891,0.011252
1977.3527,0.011402
1979.2164,0.011336
1981.0801,0.012153
1982.9437,0.012545
1984.8074,0.012238
1986.6711,0.012356
1988.5347,0.012693
1990.3984,0.012531
1992.2621,0.012094
1994.1257,0.011806
1995.9894,0.012039
1997.8531,0.011822
1999.7167,0.011671
2001.5804,0.012150
2003.4441,0.011318
2005.3078,0.010446
2007.1714,0.011208
2009.0351,0.011848
2010.8988,0.011836
2012.7624,0.011745
2014.6261,0.011086
2016.4898,0.011160
2018.3534,0.012409
2020.2171,0.012702
2022.0808,0.012757
2023.9444,0.012880
2025.8081,0.012028
2027.6718,0.011302
2029.5355,0.012072
2031.3991,0.012399
2033.2628,0.011523
2035.1265,0.011634
2036.9901,0.012218
2038.8538,0.012054
2040.7175,0.011932
2042.5811,0.012639
2044.4448,0.012624
2046.3085,0.012036
2048.1721,0.012470
2050.0358,0.013258
2051.8995,0.013145
2053.7631,0.012561
2055.6268,0.012570
2057.4905,0.012687
2059.3542,0.012608
2061.2178,0.012881
2063.0815,0.013204
2064.9452,0.013170
2066.8088,0.012935
2068.6725,0.012640
2070.5362,0.012412
2072.3998,0.012867
2074.2635,0.013481
2076.1272,0.013557
2077.9908,0.013231
2079.8545,0.012850
2081.7182,0.012956
2083.5819,0.013157
2085.4455,0.012779
2087.3092,0.012744
2089.1729,0.012985
2091.0365,0.012791
2092.9002,0.012523
2094.7639,0.012942
2096.6275,0.013254
2098.4912,0.013474
2100.3549,0.013306
2102.2185,0.012791
2104.0822,0.013022
2105.9459,0.013475
2107.8095,0.013445
2109.6732,0.012981
2111.5369,0.013259
2113.4006,0.013637
2115.2642,0.013092
2117.1279,0.012992
2118.9916,0.013228
2120.8552,0.013211
2122.7189,0.012830
2124.5826,0.012774
2126.4462,0.013281
2128.3099,0.013243
2130.1736,0.012728
2132.0372,0.012566
2133.9009,0.012496
2135.7646,0.012604
2137.6282,0.012597
2139.4919,0.011948
2141.3556,0.011551
2143.2193,0.011637
2145.0829,0.011578
2146.9466,0.011907
2148.8103,0.012114
2150.6739,0.011282
2152.5376,0.011178
2154.4013,0.011675
2156.2649,0.011276
2158.1286,0.010942
2159.9923,0.012120
2161.8559,0.013489
2163.7196,0.013365
2165.5833,0.012769
2167.4470,0.012427
2169.3106,0.012292
2171.1743,0.013031
2173.0380,0.013210
2174.9016,0.013133
2176.7653,0.012809
2178.6290,0.012676
2180.4926,0.012785
2182.3563,0.012724
2184.2200,0.012963
2186.0836,0.013701
2187.9473,0.013659
2189.8110,0.013569
2191.6746,0.013357
2193.5383,0.013194
2195.4020,0.013224
2197.2657,0.012824
2199.1293,0.012950
2200.9930,0.013224
2202.8567,0.013208
2204.7203,0.013343
2206.5840,0.013423
2208.4477,0.013346
2210.3113,0.012971
2212.1750,0.013086
2214.0387,0.014085
2215.9023,0.014724
2217.7660,0.013612
2219.6297,0.012661
2221.4934,0.013153
2223.3570,0.013785
2225.2207,0.013930
2227.0844,0.013805
2228.9480,0.013582
2230.8117,0.013596
2232.6754,0.013800
2234.5390,0.013820
2236.4027,0.014098
2238.2664,0.014040
2240.1300,0.013732
2241.9937,0.014003
2243.8574,0.014118
2245.7210,0.013948
2247.5847,0.013552
2249.4484,0.013738
2251.3121,0.014008
2253.1757,0.014387
2255.0394,0.014272
2256.9031,0.014017
2258.7667,0.014372
2260.6304,0.014567
2262.4941,0.014620
2264.3577,0.014583
2266.2214,0.014590
2268.0851,0.014612
2269.9487,0.014582
2271.8124,0.014826
2273.6761,0.014990
2275.5397,0.014832
2277.4034,0.014705
2279.2671,0.014883
2281.1308,0.015089
2282.9944,0.014678
2284.8581,0.014771
2286.7218,0.015430
2288.5854,0.015597
2290.4491,0.015486
2292.3128,0.015127
2294.1764,0.014842
2296.0401,0.014771
2297.9038,0.015059
2299.7674,0.015525
2301.6311,0.015438
2303.4948,0.015194
2305.3585,0.015364
2307.2221,0.015675
2309.0858,0.015888
2310.9495,0.016165
2312.8131,0.016746
2314.6768,0.017024
2316.5405,0.016855
2318.4041,0.016955
2320.2678,0.017447
2322.1315,0.018040
2323.9951,0.018375
2325.8588,0.018100
2327.7225,0.017906
2329.5861,0.018146
2331.4498,0.017901
2333.3135,0.017858
2335.1772,0.018160
2337.0408,0.018507
2338.9045,0.018664
2340.7682,0.018762
2342.6318,0.018891
2344.4955,0.018652
2346.3592,0.017918
2348.2228,0.017069
2350.0865,0.016884
2351.9502,0.017682
2353.8138,0.018688
2355.6775,0.019142
2357.5412,0.019697
2359.4049,0.019975
2361.2685,0.019356
2363.1322,0.018810
2364.9959,0.019006
2366.8595,0.019219
2368.7232,0.018959
2370.5869,0.018577
2372.4505,0.018047
2374.3142,0.017206
2376.1779,0.016599
2378.0415,0.016143
2379.9052,0.015700
2381.7689,0.015218
2383.6325,0.014924
2385.4962,0.014851
2387.3599,0.014941
2389.2236,0.014696
2391.0872,0.014635
2392.9509,0.014790
2394.8146,0.014736
2396.6782,0.014553
2398.5419,0.014636
2400.4056,0.014627
2402.2692,0.014457
2404.1329,0.014825
2405.9966,0.015158
2407.8602,0.015380
2409.7239,0.015552
2411.5876,0.015126
2413.4512,0.014933
2415.3149,0.015019
2417.1786,0.015039
2419.0423,0.014953
2420.9059,0.014747
2422.7696,0.014545
2424.6333,0.014717
2426.4969,0.014913
2428.3606,0.014740
2430.2243,0.014932
2432.0879,0.015472
2433.9516,0.015639
2435.8153,0.015351
2437.6789,0.015016
2439.5426,0.014819
2441.4063,0.014592
2443.2700,0.014798
2445.1336,0.015166
2446.9973,0.015447
2448.8610,0.015382
2450.7246,0.015411
2452.5883,0.015294
2454.4520,0.014827
2456.3156,0.014706
2458.1793,0.014848
2460.0430,0.015031
2461.9066,0.015179
2463.7703,0.015134
2465.6340,0.015229
2467.4976,0.015256
2469.3613,0.015307
2471.2250,0.015263
2473.0887,0.014973
2474.9523,0.014760
2476.8160,0.014960
2478.6797,0.015131
2480.5433,0.015069
2482.4070,0.015096
2484.2707,0.015175
2486.1343,0.015132
2487.9980,0.015072
2489.8617,0.015175
2491.7253,0.015484
2493.5890,0.015520
2495.4527,0.014936
2497.3164,0.014661
2499.1800,0.015163
2501.0437,0.015601
2502.9074,0.015422
2504.7710,0.015237
2506.6347,0.015309
2508.4984,0.015366
2510.3620,0.015366
2512.2257,0.015163
2514.0894,0.015153
2515.9530,0.015075
2517.8167,0.015028
2519.6804,0.015286
2521.5440,0.015259
2523.4077,0.015195
2525.2714,0.015272
2527.1351,0.015513
2528.9987,0.015722
2530.8624,0.015483
2532.7261,0.015411
2534.5897,0.015348
2536.4534,0.015380
2538.3171,0.015616
2540.1807,0.015690
2542.0444,0.015764
2543.9081,0.015850
2545.7717,0.015198
2547.6354,0.014668
2549.4991,0.015032
2551.3627,0.015466
2553.2264,0.015269
2555.0901,0.014810
2556.9538,0.014857
2558.8174,0.015458
2560.6811,0.015711
2562.5448,0.016045
2564.4084,0.016092
2566.2721,0.015509
2568.1358,0.015058
2569.9994,0.015053
2571.8631,0.015439
2573.7268,0.015577
2575.5904,0.015573
2577.4541,0.015430
2579.3178,0.015329
2581.1815,0.015514
2583.0451,0.015404
2584.9088,0.015246
2586.7725,0.015086
2588.6361,0.015350
2590.4998,0.015774
2592.3635,0.015715
2594.2271,0.015375
2596.0908,0.015530
2597.9545,0.015839
2599.8181,0.015640
2601.6818,0.015432
2603.5455,0.015638
2605.4091,0.015919
2607.2728,0.016013
2609.1365,0.015793
2611.0002,0.015959
2612.8638,0.016257
2614.7275,0.016065
2616.5912,0.015600
2618.4548,0.015481
2620.3185,0.015607
2622.1822,0.015811
2624.0458,0.015975
2625.9095,0.015585
2627.7732,0.015441
2629.6368,0.015833
2631.5005,0.015972
2633.3642,0.015967
2635.2279,0.016079
2637.0915,0.016050
2638.9552,0.015916
2640.8189,0.016124
2642.6825,0.016185
2644.5462,0.016033
2646.4099,0.016062
2648.2735,0.016057
2650.1372,0.015882
2652.0009,0.015571
2653.8645,0.015481
2655.7282,0.015541
2657.5919,0.015749
2659.4555,0.016072
2661.3192,0.015970
2663.1829,0.015853
2665.0466,0.016019
2666.9102,0.015823
2668.7739,0.015513
2670.6376,0.015663
2672.5012,0.015828
2674.3649,0.015914
2676.2286,0.015881
2678.0922,0.015794
2679.9559,0.015643
2681.8196,0.015460
2683.6832,0.015613
2685.5469,0.015786
2687.4106,0.015893
2689.2742,0.015852
2691.1379,0.015654
2693.0016,0.015665
2694.8653,0.015828
2696.7289,0.015884
2698.5926,0.015869
2700.4563,0.015913
2702.3199,0.015930
2704.1836,0.015989
2706.0473,0.015783
2707.9109,0.015654
2709.7746,0.015840
2711.6383,0.015795
2713.5019,0.015734
2715.3656,0.015789
2717.2293,0.015765
2719.0930,0.016000
2720.9566,0.015914
2722.8203,0.015827
2724.6840,0.016298
2726.5476,0.016344
2728.4113,0.016099
2730.2750,0.016155
2732.1386,0.016032
2734.0023,0.016147
2735.8660,0.016266
2737.7296,0.016038
2739.5933,0.015904
2741.4570,0.015845
2743.3206,0.015816
2745.1843,0.015945
2747.0480,0.016011
2748.9117,0.016050
2750.7753,0.016097
2752.6390,0.016034
2754.5027,0.016021
2756.3663,0.016052
2758.2300,0.016187
2760.0937,0.016176
2761.9573,0.015966
2763.8210,0.016150
2765.6847,0.016325
2767.5483,0.016165
2769.4120,0.016207
2771.2757,0.016137
2773.1394,0.016060
2775.0030,0.016162
2776.8667,0.016210
2778.7304,0.015870
2780.5940,0.016061
2782.4577,0.016592
2784.3214,0.016582
2786.1850,0.016522
2788.0487,0.016434
2789.9124,0.016244
2791.7760,0.016326
2793.6397,0.016155
2795.5034,0.015880
2797.3670,0.016147
2799.2307,0.016419
2801.0944,0.016550
2802.9581,0.016791
2804.8217,0.016520
2806.6854,0.016116
2808.5491,0.016381
2810.4127,0.016746
2812.2764,0.016783
2814.1401,0.016751
2816.0037,0.016684
2817.8674,0.016375
2819.7311,0.016091
2821.5947,0.016232
2823.4584,0.016650
2825.3221,0.016743
2827.1857,0.016645
2829.0494,0.016665
2830.9131,0.016583
2832.7768,0.016452
2834.6404,0.016585
2836.5041,0.016653
2838.3678,0.016654
2840.2314,0.016784
2842.0951,0.016919
2843.9588,0.017083
2845.8224,0.017185
2847.6861,0.017476
2849.5498,0.018104
2851.4134,0.018299
2853.2771,0.018205
2855.1408,0.017965
2857.0045,0.017601
2858.8681,0.017800
2860.7318,0.017829
2862.5955,0.017421
2864.4591,0.017385
2866.3228,0.017271
2868.1865,0.017343
2870.0501,0.017333
2871.9138,0.017111
2873.7775,0.017275
2875.6411,0.017375
2877.5048,0.017100
2879.3685,0.016936
2881.2321,0.016911
2883.0958,0.017061
2884.9595,0.017352
2886.8232,0.017564
2888.6868,0.017695
2890.5505,0.017679
2892.4142,0.017435
2894.2778,0.017377
2896.1415,0.017416
2898.0052,0.017597
2899.8688,0.017872
2901.7325,0.018095
2903.5962,0.017976
2905.4598,0.017958
2907.3235,0.018275
2909.1872,0.018540
2911.0509,0.018637
2912.9145,0.018791
2914.7782,0.019214
2916.6419,0.019502
2918.5055,0.019680
2920.3692,0.019965
2922.2329,0.020103
2924.0965,0.019758
2925.9602,0.019382
2927.8239,0.019463
2929.6875,0.019559
2931.5512,0.019291
2933.4149,0.019174
2935.2785,0.019343
2937.1422,0.019238
2939.0059,0.019052
2940.8696,0.018873
2942.7332,0.018860
2944.5969,0.018680
2946.4606,0.018055
2948.3242,0.017845
2950.1879,0.018117
2952.0516,0.018140
2953.9152,0.018023
2955.7789,0.018331
2957.6426,0.018535
2959.5062,0.018225
2961.3699,0.018290
2963.2336,0.018188
2965.0972,0.017753
2966.9609,0.018229
2968.8246,0.018708
2970.6883,0.018411
2972.5519,0.017983
2974.4156,0.017690
2976.2793,0.017571
2978.1429,0.017763
2980.0066,0.018063
2981.8703,0.018082
2983.7339,0.017980
2985.5976,0.017844
2987.4613,0.017636
2989.3249,0.017744
2991.1886,0.018471
2993.0523,0.018697
2994.9160,0.017969
2996.7796,0.017520
2998.6433,0.017714
3000.5070,0.017847
3002.3706,0.017646
3004.2343,0.017624
3006.0980,0.017833
3007.9616,0.018142
3009.8253,0.018454
3011.6890,0.018405
3013.5526,0.018133
3015.4163,0.017969
3017.2800,0.017996
3019.1436,0.018428
3021.0073,0.018853
3022.8710,0.018641
3024.7347,0.018403
3026.5983,0.018457
3028.4620,0.018534
3030.3257,0.018469
3032.1893,0.018233
3034.0530,0.018097
3035.9167,0.018391
3037.7803,0.018727
3039.6440,0.018868
3041.5077,0.018547
3043.3713,0.018512
3045.2350,0.019051
3047.0987,0.019148
3048.9624,0.019088
3050.8260,0.019201
3052.6897,0.018760
3054.5534,0.018650
3056.4170,0.019206
3058.2807,0.019284
3060.1444,0.019020
3062.0080,0.019084
3063.8717,0.019492
3065.7354,0.019497
3067.5990,0.019163
3069.4627,0.019152
3071.3264,0.018996
3073.1900,0.019110
3075.0537,0.019412
3076.9174,0.019509
3078.7811,0.019639
3080.6447,0.019718
3082.5084,0.019865
3084.3721,0.019801
3086.2357,0.019578
3088.0994,0.019850
3089.9631,0.020044
3091.8267,0.020134
3093.6904,0.020260
3095.5541,0.020227
3097.4177,0.020110
3099.2814,0.020244
3101.1451,0.020794
3103.0087,0.020637
3104.8724,0.020390
3106.7361,0.020984
3108.5998,0.021155
3110.4634,0.021110
3112.3271,0.020803
3114.1908,0.020391
3116.0544,0.020809
3117.9181,0.021304
3119.7818,0.020941
3121.6454,0.020631
3123.5091,0.020834
3125.3728,0.021632
3127.2364,0.022071
3129.1001,0.021396
3130.9638,0.021116
3132.8275,0.021431
3134.6911,0.021668
3136.5548,0.021944
3138.4185,0.021818
3140.2821,0.021635
3142.1458,0.021883
3144.0095,0.021906
3145.8731,0.021933
3147.7368,0.022577
3149.6005,0.022607
3151.4641,0.022186
3153.3278,0.022265
3155.1915,0.022189
3157.0551,0.022318
3158.9188,0.022779
3160.7825,0.022862
3162.6462,0.022781
3164.5098,0.022715
3166.3735,0.022517
3168.2372,0.022938
3170.1008,0.023822
3171.9645,0.023863
3173.8282,0.023626
3175.6918,0.023072
3177.5555,0.022172
3179.4192,0.021969
3181.2828,0.022713
3183.1465,0.023673
3185.0102,0.023957
3186.8739,0.023621
3188.7375,0.023803
3190.6012,0.023892
3192.4649,0.023089
3194.3285,0.023574
3196.1922,0.024676
3198.0559,0.024465
3199.9195,0.023809
3201.7832,0.023857
3203.6469,0.024060
3205.5105,0.024073
3207.3742,0.024512
3209.2379,0.024690
3211.1015,0.024450
3212.9652,0.024228
3214.8289,0.024427
3216.6926,0.024794
3218.5562,0.024474
3220.4199,0.024395
3222.2836,0.025277
3224.1472,0.025292
3226.0109,0.024425
3227.8746,0.023968
3229.7382,0.024242
3231.6019,0.024152
3233.4656,0.024222
3235.3292,0.025402
3237.1929,0.025990
3239.0566,0.025264
3240.9202,0.024639
3242.7839,0.025013
3244.6476,0.025064
3246.5113,0.024802
3248.3749,0.025436
3250.2386,0.025335
3252.1023,0.024728
3253.9659,0.024830
3255.8296,0.025226
3257.6933,0.024773
3259.5569,0.024364
3261.4206,0.024992
3263.2843,0.026250
3265.1479,0.026449
3267.0116,0.025115
3268.8753,0.024507
3270.7390,0.025623
3272.6026,0.026012
3274.4663,0.025015
3276.3300,0.024788
3278.1936,0.025335
3280.0573,0.025437
3281.9210,0.025460
3283.7846,0.025427
3285.6483,0.024910
3287.5120,0.025010
3289.3756,0.025599
3291.2393,0.024542
3293.1030,0.024665
3294.9666,0.026020
3296.8303,0.025581
3298.6940,0.024321
3300.5577,0.024175
3302.4213,0.024867
3304.2850,0.024931
3306.1487,0.024885
3308.0123,0.025888
3309.8760,0.025055
3311.7397,0.024558
3313.6033,0.026230
3315.4670,0.026809
3317.3307,0.026114
3319.1943,0.026465
3321.0580,0.026602
3322.9217,0.026034
3324.7854,0.025608
3326.6490,0.024982
3328.5127,0.024430
3330.3764,0.024618
3332.2400,0.024934
3334.1037,0.024717
3335.9674,0.025116
3337.8310,0.025776
3339.6947,0.025484
3341.5584,0.024691
3343.4220,0.024802
3345.2857,0.025489
3347.1494,0.025153
3349.0130,0.025089
3350.8767,0.025610
3352.7404,0.025436
3354.6041,0.025176
3356.4677,0.025582
3358.3314,0.025191
3360.1951,0.024564
3362.0587,0.024369
3363.9224,0.023841
3365.7861,0.024138
3367.6497,0.025180
3369.5134,0.025562
3371.3771,0.025537
3373.2407,0.025942
3375.1044,0.025157
3376.9681,0.024315
3378.8317,0.024711
3380.6954,0.025713
3382.5591,0.026123
3384.4228,0.024765
3386.2864,0.023262
3388.1501,0.023672
3390.0138,0.024266
3391.8774,0.023683
3393.7411,0.023376
3395.6048,0.023417
3397.4684,0.024261
3399.3321,0.024485
3401.1958,0.023802
3403.0594,0.023664
3404.9231,0.023862
3406.7868,0.023881
3408.6505,0.024393
3410.5141,0.024081
3412.3778,0.023537
3414.2415,0.023314
3416.1051,0.022778
3417.9688,0.022286
3419.8325,0.022819
3421.6961,0.023367
3423.5598,0.023209
3425.4235,0.021771
3427.2871,0.021839
3429.1508,0.023132
3431.0145,0.023064
3432.8781,0.022202
3434.7418,0.022590
3436.6055,0.022415
3438.4692,0.021458
3440.3328,0.021253
3442.1965,0.021869
3444.0602,0.022459
3445.9238,0.022342
3447.7875,0.020974
3449.6512,0.020386
3451.5148,0.020273
3453.3785,0.020367
3455.2422,0.020355
3457.1058,0.020272
3458.9695,0.021351
3460.8332,0.021693
3462.6969,0.021215
3464.5605,0.020717
3466.4242,0.019738
3468.2879,0.018633
3470.1515,0.019590
3472.0152,0.020942
3473.8789,0.021495
3475.7425,0.021900
3477.6062,0.020644
3479.4699,0.018872
3481.3335,0.019121
3483.1972,0.019476
3485.0609,0.019799
3486.9245,0.020086
3488.7882,0.020005
3490.6519,0.020587
3492.5156,0.020649
3494.3792,0.021412
3496.2429,0.021242
3498.1066,0.020486
3499.9702,0.019431
3501.8339,0.019539
3503.6976,0.020581
3505.5612,0.020906
3507.4249,0.020416
3509.2886,0.018284
3511.1522,0.016524
3513.0159,0.017681
3514.8796,0.019200
3516.7432,0.018789
3518.6069,0.018120
3520.4706,0.018533
3522.3343,0.019214
3524.1979,0.020411
3526.0616,0.021135
3527.9253,0.021386
3529.7889,0.020836
3531.6526,0.019576
3533.5163,0.018519
3535.3799,0.018355
3537.2436,0.019021
3539.1073,0.020548
3540.9709,0.020504
3542.8346,0.020008
3544.6983,0.018818
3546.5620,0.017613
3548.4256,0.018630
3550.2893,0.020630
3552.1530,0.020646
3554.0166,0.019652
3555.8803,0.019670
3557.7440,0.020623
3559.6076,0.020040
3561.4713,0.019039
3563.3350,0.017456
3565.1986,0.017357
3567.0623,0.019174
3568.9260,0.019439
3570.7896,0.019733
3572.6533,0.020550
3574.5170,0.020537
3576.3807,0.019134
3578.2443,0.018480
3580.1080,0.018394
3581.9717,0.018429
3583.8353,0.019412
3585.6990,0.019866
3587.5627,0.019289
3589.4263,0.018294
3591.2900,0.018738
3593.1537,0.018235
3595.0173,0.017321
3596.8810,0.019354
3598.7447,0.021637
3600.6084,0.020050
3602.4720,0.018563
3604.3357,0.018087
3606.1994,0.017692
3608.0630,0.017503
3609.9267,0.017871
3611.7904,0.018187
3613.6540,0.017659
3615.5177,0.017395
3617.3814,0.018241
3619.2450,0.018422
3621.1087,0.019334
3622.9724,0.019204
3624.8360,0.017856
3626.6997,0.016241
3628.5634,0.015791
3630.4271,0.016731
3632.2907,0.018355
3634.1544,0.018364
3636.0181,0.017586
3637.8817,0.016870
3639.7454,0.016835
3641.6091,0.016663
3643.4727,0.016132
3645.3364,0.015652
3647.2001,0.014008
3649.0637,0.013010
3650.9274,0.014198
3652.7911,0.014633
3654.6547,0.014402
3656.5184,0.014254
3658.3821,0.014606
3660.2458,0.014108
3662.1094,0.013710
3663.9731,0.014538
3665.8368,0.014765
3667.7004,0.014381
3669.5641,0.014317
3671.4278,0.013327
3673.2914,0.012186
3675.1551,0.011849
3677.0188,0.012474
3678.8824,0.013106
3680.7461,0.012672
3682.6098,0.011795
3684.4735,0.011248
3686.3371,0.011281
3688.2008,0.009814
3690.0645,0.009357
3691.9281,0.010889
3693.7918,0.010536
3695.6555,0.009786
3697.5191,0.009671
3699.3828,0.008910
3701.2465,0.007869
3703.1101,0.008703
3704.9738,0.009324
3706.8375,0.008639
3708.7011,0.007861
3710.5648,0.008209
3712.4285,0.009016
3714.2922,0.009157
3716.1558,0.008874
3718.0195,0.008633
3719.8832,0.008057
3721.7468,0.007513
3723.6105,0.007974
3725.4742,0.008174
3727.3378,0.007366
3729.2015,0.006827
3731.0652,0.006296
3732.9288,0.005781
3734.7925,0.006627
3736.6562,0.006483
3738.5199,0.005891
3740.3835,0.006067
3742.2472,0.005526
3744.1109,0.005923
3745.9745,0.006258
3747.8382,0.006579
3749.7019,0.005611
3751.5655,0.005679
3753.4292,0.006105
3755.2929,0.006555
3757.1565,0.006060
3759.0202,0.005290
3760.8839,0.006493
3762.7475,0.007546
3764.6112,0.006909
3766.4749,0.005593
3768.3386,0.006243
3770.2022,0.006715
3772.0659,0.006906
3773.9296,0.006888
3775.7932,0.006725
3777.6569,0.007267
3779.5206,0.007267
3781.3842,0.006865
3783.2479,0.006613
3785.1116,0.006786
3786.9752,0.006827
3788.8389,0.007223
3790.7026,0.007450
3792.5662,0.007494
3794.4299,0.006369
3796.2936,0.005938
3798.1573,0.006092
3800.0209,0.005917
3801.8846,0.005720
3803.7483,0.006352
3805.6119,0.007040
3807.4756,0.006694
3809.3393,0.007202
3811.2029,0.007824
3813.0666,0.006805
3814.9303,0.005787
3816.7939,0.005059
3818.6576,0.005534
3820.5213,0.006256
3822.3850,0.006754
3824.2486,0.007439
3826.1123,0.006666
3827.9760,0.006134
3829.8396,0.006850
3831.7033,0.006717
3833.5670,0.006163
3835.4306,0.006351
3837.2943,0.006920
3839.1580,0.006644
3841.0216,0.006262
3842.8853,0.006510
3844.7490,0.006544
3846.6126,0.007067
3848.4763,0.007332
3850.3400,0.006071
3852.2037,0.004547
3854.0673,0.004458
3855.9310,0.007138
3857.7947,0.007672
3859.6583,0.006447
3861.5220,0.006029
3863.3857,0.005716
3865.2493,0.006318
3867.1130,0.006386
3868.9767,0.006493
3870.8403,0.006486
3872.7040,0.007206
3874.5677,0.006803
3876.4314,0.006268
3878.2950,0.006533
3880.1587,0.006215
3882.0224,0.006378
3883.8860,0.006947
3885.7497,0.006997
3887.6134,0.006947
3889.4770,0.006619
3891.3407,0.006453
3893.2044,0.006575
3895.0680,0.006644
3896.9317,0.006847
3898.7954,0.006550
3900.6590,0.005911
3902.5227,0.005796
3904.3864,0.006526
3906.2501,0.007328
3908.1137,0.007661
3909.9774,0.007924
3911.8411,0.007607
3913.7047,0.007379
3915.5684,0.007131
3917.4321,0.006693
3919.2957,0.007090
3921.1594,0.007638
3923.0231,0.008101
3924.8867,0.008349
3926.7504,0.008068
3928.6141,0.007563
3930.4777,0.006483
3932.3414,0.006234
3934.2051,0.007100
3936.0688,0.007766
3937.9324,0.007297
3939.7961,0.007064
3941.6598,0.007711
3943.5234,0.007474
3945.3871,0.006581
3947.2508,0.006125
3949.1144,0.006586
3950.9781,0.007674
3952.8418,0.007936
3954.7054,0.007490
3956.5691,0.007178
3958.4328,0.006988
3960.2965,0.007008
3962.1601,0.007402
3964.0238,0.007786
3965.8875,0.007975
3967.7511,0.007843
3969.6148,0.007345
3971.4785,0.006503
3973.3421,0.006715
3975.2058,0.007140
3977.0695,0.006650
3978.9331,0.007219
3980.7968,0.007907
3982.6605,0.007674
3984.5241,0.008200
3986.3878,0.008639
3988.2515,0.008389
3990.1152,0.007098
3991.9788,0.006357
3993.8425,0.006865
3995.7062,0.007390
3997.5698,0.007372
3999.4335,0.006792
4001.2972,0.006536
4003.1608,0.007208
4005.0245,0.008318
4006.8882,0.008184
4008.7518,0.007596
4010.6155,0.007681
4012.4792,0.007488
4014.3429,0.007142
4016.2065,0.007356
4018.0702,0.007066
4019.9339,0.006466
4021.7975,0.006923
4023.6612,0.007865
4025.5249,0.007801
4027.3885,0.007408
4029.2522,0.007130
4031.1159,0.006979
4032.9795,0.007389
4034.8432,0.007345
4036.7069,0.007118
4038.5705,0.007159
4040.4342,0.007590
4042.2979,0.008091
4044.1616,0.007656
4046.0252,0.006570
4047.8889,0.006290
4049.7526,0.006744
4051.6162,0.007375
4053.4799,0.006844
4055.3436,0.006349
4057.2072,0.007417
4059.0709,0.008042
4060.9346,0.006813
4062.7982,0.006658
4064.6619,0.007102
4066.5256,0.006626
4068.3892,0.006493
4070.2529,0.007366
4072.1166,0.007847
4073.9803,0.007849
4075.8439,0.007294
4077.7076,0.007657
4079.5713,0.007248
4081.4349,0.006591
4083.2986,0.007024
4085.1623,0.007036
4087.0259,0.007349
4088.8896,0.007024
4090.7533,0.006729
4092.6169,0.006782
4094.4806,0.006457
4096.3443,0.006380
4098.2080,0.006244
4100.0716,0.006347
4101.9353,0.007018
4103.7990,0.007774
4105.6626,0.007488
4107.5263,0.007409
4109.3900,0.007467
4111.2536,0.007164
4113.1173,0.006826
4114.9810,0.006386
4116.8446,0.006693
4118.7083,0.006560
4120.5720,0.007090
4122.4356,0.008171
4124.2993,0.007995
4126.1630,0.007206
4128.0267,0.006734
4129.8903,0.006398
4131.7540,0.006329
4133.6177,0.006634
4135.4813,0.006797
4137.3450,0.007131
4139.2087,0.006671
4141.0723,0.006250
4142.9360,0.006312
4144.7997,0.006527
4146.6633,0.007859
4148.5270,0.007676
4150.3907,0.007286
4152.2544,0.006735
4154.1180,0.006740
4155.9817,0.007239
4157.8454,0.006604
4159.7090,0.006831
4161.5727,0.007578
4163.4364,0.007030
4165.3000,0.006609
4167.1637,0.006822
4169.0274,0.006496
4170.8910,0.006501
4172.7547,0.008015
4174.6184,0.008273
4176.4820,0.006412
4178.3457,0.006272
4180.2094,0.007799
4182.0731,0.007730
4183.9367,0.007385
4185.8004,0.007386
4187.6641,0.007180
4189.5277,0.007583
4191.3914,0.007574
4193.2551,0.006577
4195.1187,0.006185
4196.9824,0.006641
4198.8461,0.007577
4200.7097,0.007796
4202.5734,0.007094
4204.4371,0.005492
4206.3007,0.005680
4208.1644,0.006941
4210.0281,0.007127
4211.8918,0.007482
4213.7554,0.007774
4215.6191,0.007389
4217.4828,0.007892
4219.3464,0.008636
4221.2101,0.007660
4223.0738,0.006714
4224.9374,0.006924
4226.8011,0.007030
4228.6648,0.006486
4230.5284,0.006694
4232.3921,0.007675
4234.2558,0.007493
4236.1195,0.006653
4237.9831,0.006908
4239.8468,0.008702
4241.7105,0.008636
4243.5741,0.007418
4245.4378,0.006448
4247.3015,0.007058
4249.1651,0.008021
4251.0288,0.008128
4252.8925,0.007656
4254.7561,0.007153
4256.6198,0.006433
4258.4835,0.005935
4260.3471,0.006580
4262.2108,0.007932
4264.0745,0.008231
4265.9382,0.007221
4267.8018,0.007701
4269.6655,0.007879
4271.5292,0.007220
4273.3928,0.006741
4275.2565,0.006463
4277.1202,0.007154
4278.9838,0.007552
4280.8475,0.007508
4282.7112,0.006928
4284.5748,0.006881
4286.4385,0.007986
4288.3022,0.008704
4290.1659,0.008037
4292.0295,0.007673
4293.8932,0.007484
4295.7569,0.007684
4297.6205,0.007008
4299.4842,0.006734
4301.3479,0.006638
4303.2115,0.006849
4305.0752,0.007179
4306.9389,0.007235
4308.8025,0.007495
4310.6662,0.007734
4312.5299,0.007068
4314.3935,0.007166
4316.2572,0.008104
4318.1209,0.007488
4319.9846,0.006790
4321.8482,0.007787
4323.7119,0.008147
4325.5756,0.007773
4327.4392,0.007200
4329.3029,0.007760
4331.1666,0.008276
4333.0302,0.007841
4334.8939,0.007631
4336.7576,0.007777
4338.6212,0.007782
4340.4849,0.007590
4342.3486,0.007144
4344.2122,0.006551
4346.0759,0.007657
4347.9396,0.008101
4349.8033,0.008258
4351.6669,0.007988
4353.5306,0.006751
4355.3943,0.006094
4357.2579,0.006793
4359.1216,0.007351
4360.9853,0.007244
4362.8489,0.007157
4364.7126,0.008109
4366.5763,0.008026
4368.4399,0.007392
4370.3036,0.007032
4372.1673,0.007263
4374.0310,0.007237
4375.8946,0.007093
4377.7583,0.008330
4379.6220,0.007870
4381.4856,0.007839
4383.3493,0.008290
4385.2130,0.006717
4387.0766,0.005917
4388.9403,0.007073
4390.8040,0.006989
4392.6676,0.006786
4394.5313,0.007656
4396.3950,0.008145
4398.2586,0.008454
4400.1223,0.008268
4401.9860,0.007757
4403.8497,0.007478
4405.7133,0.008058
4407.5770,0.008575
4409.4407,0.008753
4411.3043,0.007773
4413.1680,0.006887
4415.0317,0.007207
4416.8953,0.007166
4418.7590,0.007753
4420.6227,0.008121
4422.4863,0.007843
4424.3500,0.008562
4426.2137,0.008448
4428.0774,0.007412
4429.9410,0.007604
4431.8047,0.007945
4433.6684,0.008229
4435.5320,0.007808
4437.3957,0.007913
4439.2594,0.007539
4441.1230,0.007563
4442.9867,0.007610
4444.8504,0.007742
4446.7140,0.007413
4448.5777,0.007876
4450.4414,0.007499
4452.3050,0.007072
4454.1687,0.007900
4456.0324,0.008423
4457.8961,0.008054
4459.7597,0.007658
4461.6234,0.008491
4463.4871,0.007927
4465.3507,0.006246
4467.2144,0.006463
4469.0781,0.007585
4470.9417,0.007802
4472.8054,0.007155
4474.6691,0.007156
4476.5327,0.007757
4478.3964,0.007097
4480.2601,0.007082
4482.1237,0.007651
4483.9874,0.007243
4485.8511,0.007159
4487.7148,0.007555
4489.5784,0.007778
4491.4421,0.008054
4493.3058,0.008012
4495.1694,0.006902
4497.0331,0.006657
4498.8968,0.007271
4500.7604,0.007586
