Wavenumber,Intensity
650.4205,0.008628
652.2841,0.007401
654.1478,0.005931
656.0115,0.005792
657.8751,0.005602
659.7388,0.005425
661.6025,0.004984
663.4661,0.003727
665.3298,0.000454
667.1935,0.007051
669.0571,0.011361
670.9208,0.008625
672.7845,0.002033
674.6481,0.001867
676.5118,0.002630
678.3755,0.003395
680.2392,0.003140
682.1028,0.003645
683.9665,0.003189
685.8302,0.001402
687.6938,0.000769
689.5575,0.002179
691.4212,0.002079
693.2848,0.001339
695.1485,0.000527
697.0122,0.001067
698.8758,0.001113
700.7395,0.000603
702.6032,0.000424
704.4669,0.000707
706.3305,-0.000148
708.1942,-0.000355
710.0579,-0.000187
711.9215,-0.000116
713.7852,-0.000880
715.6489,-0.001351
717.5125,-0.001667
719.3762,-0.001273
721.2399,-0.001652
723.1035,-0.001902
724.9672,-0.001595
726.8309,-0.001536
728.6945,-0.002149
730.5582,-0.001830
732.4219,-0.001676
734.2856,-0.001964
736.1492,-0.002699
738.0129,-0.003024
739.8766,-0.002815
741.7402,-0.002770
743.6039,-0.003004
745.4676,-0.002630
747.3312,-0.002686
749.1949,-0.003309
751.0586,-0.004195
752.9222,-0.003973
754.7859,-0.003314
756.6496,-0.003174
758.5132,-0.003578
760.3769,-0.003259
762.2406,-0.003249
764.1043,-0.003440
765.9679,-0.003635
767.8316,-0.003690
769.6953,-0.003950
771.5589,-0.004129
773.4226,-0.003935
775.2863,-0.003753
777.1499,-0.004079
779.0136,-0.003935
780.8773,-0.004015
782.7409,-0.004044
784.6046,-0.004211
786.4683,-0.004559
788.3320,-0.004988
790.1956,-0.004779
792.0593,-0.004782
793.9230,-0.004739
795.7866,-0.004683
797.6503,-0.004816
799.5140,-0.005213
801.3776,-0.005138
803.2413,-0.004851
805.1050,-0.004700
806.9686,-0.005022
808.8323,-0.005250
810.6960,-0.005428
812.5596,-0.005565
814.4233,-0.005743
816.2870,-0.005542
818.1507,-0.005544
820.0143,-0.005678
821.8780,-0.005705
823.7417,-0.005324
825.6053,-0.005379
827.4690,-0.005653
829.3327,-0.005588
831.1963,-0.005103
833.0600,-0.005299
834.9237,-0.005559
836.7873,-0.005412
838.6510,-0.005422
840.5147,-0.005690
842.3784,-0.005603
844.2420,-0.005264
846.1057,-0.005104
847.9694,-0.005369
849.8330,-0.005185
851.6967,-0.004772
853.5604,-0.004686
855.4240,-0.004960
857.2877,-0.004927
859.1514,-0.004913
861.0150,-0.004844
862.8787,-0.004840
864.7424,-0.004553
866.6060,-0.004259
868.4697,-0.004155
870.3334,-0.004355
872.1971,-0.004096
874.0607,-0.003747
875.9244,-0.003820
877.7881,-0.004161
879.6517,-0.004089
881.5154,-0.003906
883.3791,-0.003996
885.2427,-0.004027
887.1064,-0.003540
888.9701,-0.003415
890.8337,-0.003664
892.6974,-0.003785
894.5611,-0.003489
896.4247,-0.003377
898.2884,-0.003502
900.1521,-0.003779
902.0158,-0.003694
903.8794,-0.003371
905.7431,-0.003194
907.6068,-0.003172
909.4704,-0.003102
911.3341,-0.003333
913.1978,-0.003344
915.0614,-0.003131
916.9251,-0.002826
918.7888,-0.002996
920.6524,-0.003137
922.5161,-0.002971
924.3798,-0.002743
926.2435,-0.002934
928.1071,-0.002804
929.9708,-0.002447
931.8345,-0.002323
933.6981,-0.002479
935.5618,-0.002359
937.4255,-0.002279
939.2891,-0.002179
941.1528,-0.002150
943.0165,-0.001959
944.8801,-0.001860
946.7438,-0.001711
948.6075,-0.001564
950.4711,-0.001341
952.3348,-0.001223
954.1985,-0.001073
956.0622,-0.001171
957.9258,-0.001003
959.7895,-0.000880
961.6532,-0.000857
963.5168,-0.000755
965.3805,-0.000453
967.2442,-0.000163
969.1078,-0.000018
970.9715,0.000046
972.8352,0.000234
974.6988,0.000265
976.5625,0.000379
978.4262,0.000536
980.2899,0.000740
982.1535,0.000700
984.0172,0.000767
985.8809,0.000970
987.7445,0.001098
989.6082,0.000945
991.4719,0.001005
993.3355,0.001254
995.1992,0.001468
997.0629,0.001318
998.9265,0.001370
1000.7902,0.001459
1002.6539,0.001376
1004.5175,0.001087
1006.3812,0.001121
1008.2449,0.001244
1010.1086,0.001228
1011.9722,0.000988
1013.8359,0.000985
1015.6996,0.001087
1017.5632,0.001101
1019.4269,0.001059
1021.2906,0.001000
1023.1542,0.000897
1025.0179,0.000859
1026.8816,0.000740
1028.7452,0.000783
1030.6089,0.000851
1032.4726,0.000728
1034.3362,0.000437
1036.1999,0.000370
1038.0636,0.000246
1039.9273,0.000038
1041.7909,-0.000053
1043.6546,0.000030
1045.5183,-0.000159
1047.3819,-0.000357
1049.2456,-0.000394
1051.1093,-0.000426
1052.9729,-0.000687
1054.8366,-0.000896
1056.7003,-0.000979
1058.5639,-0.000895
1060.4276,-0.001084
1062.2913,-0.001300
1064.1550,-0.001473
1066.0186,-0.001595
1067.8823,-0.001879
1069.7460,-0.002194
1071.6096,-0.002369
1073.4733,-0.002332
1075.3370,-0.002444
1077.2006,-0.002511
1079.0643,-0.002550
1080.9280,-0.002583
1082.7916,-0.002767
1084.6553,-0.002773
1086.5190,-0.002853
1088.3826,-0.003027
1090.2463,-0.003237
1092.1100,-0.003160
1093.9737,-0.003210
1095.8373,-0.003339
1097.7010,-0.003414
1099.5647,-0.003320
1101.4283,-0.003346
1103.2920,-0.003380
1105.1557,-0.003449
1107.0193,-0.003353
1108.8830,-0.003381
1110.7467,-0.003510
1112.6103,-0.003565
1114.4740,-0.003459
1116.3377,-0.003518
1118.2014,-0.003512
1120.0650,-0.003544
1121.9287,-0.003546
1123.7924,-0.003651
1125.6560,-0.003740
1127.5197,-0.003763
1129.3834,-0.003635
1131.2470,-0.003746
1133.1107,-0.003812
1134.9744,-0.003725
1136.8380,-0.003622
1138.7017,-0.003872
1140.5654,-0.003875
1142.4290,-0.003743
1144.2927,-0.003698
1146.1564,-0.003853
1148.0201,-0.003780
1149.8837,-0.003733
1151.7474,-0.003782
1153.6111,-0.004022
1155.4747,-0.004070
1157.3384,-0.004114
1159.2021,-0.004167
1161.0657,-0.004236
1162.9294,-0.004195
1164.7931,-0.004284
1166.6567,-0.004368
1168.5204,-0.004554
1170.3841,-0.004613
1172.2477,-0.004666
1174.1114,-0.004728
1175.9751,-0.005001
1177.8388,-0.005167
1179.7024,-0.005211
1181.5661,-0.005274
1183.4298,-0.005385
1185.2934,-0.005299
1187.1571,-0.005231
1189.0208,-0.005310
1190.8844,-0.005469
1192.7481,-0.005398
1194.6118,-0.005509
1196.4754,-0.005482
1198.3391,-0.005350
1200.2028,-0.005246
1202.0665,-0.005493
1203.9301,-0.005494
1205.7938,-0.005465
1207.6575,-0.005428
1209.5211,-0.005470
1211.3848,-0.005344
1213.2485,-0.005311
1215.1121,-0.005450
1216.9758,-0.005580
1218.8395,-0.005405
1220.7031,-0.005379
1222.5668,-0.005360
1224.4305,-0.005276
1226.2941,-0.005119
1228.1578,-0.005255
1230.0215,-0.005279
1231.8852,-0.005367
1233.7488,-0.005253
1235.6125,-0.005249
1237.4762,-0.005201
1239.3398,-0.005238
1241.2035,-0.005208
1243.0672,-0.005159
1244.9308,-0.005055
1246.7945,-0.005328
1248.6582,-0.005307
1250.5218,-0.005426
1252.3855,-0.005549
1254.2492,-0.005567
1256.1129,-0.005387
1257.9765,-0.005298
1259.8402,-0.004950
1261.7039,-0.004908
1263.5675,-0.005068
1265.4312,-0.004779
1267.2949,-0.004335
1269.1585,-0.003938
1271.0222,-0.003567
1272.8859,-0.003947
1274.7495,-0.004715
1276.6132,-0.004945
1278.4769,-0.004745
1280.3405,-0.004637
1282.2042,-0.004608
1284.0679,-0.004617
1285.9316,-0.004137
1287.7952,-0.003547
1289.6589,-0.003492
1291.5226,-0.004227
1293.3862,-0.004432
1295.2499,-0.004330
1297.1136,-0.004001
1298.9772,-0.004313
1300.8409,-0.004432
1302.7046,-0.004434
1304.5682,-0.004254
1306.4319,-0.004043
1308.2956,-0.003734
1310.1592,-0.003710
1312.0229,-0.002429
1313.8866,-0.001218
1315.7503,-0.001597
1317.6139,-0.000973
1319.4776,-0.000062
1321.3413,-0.001656
1323.2049,-0.003345
1325.0686,-0.003683
1326.9323,-0.003796
1328.7959,-0.003760
1330.6596,-0.003818
1332.5233,-0.004039
1334.3869,-0.003651
1336.2506,-0.000607
1338.1143,0.005284
1339.9780,0.008824
1341.8416,0.003466
1343.7053,-0.003095
1345.5690,-0.003661
1347.4326,-0.003598
1349.2963,-0.002904
1351.1600,-0.003045
1353.0236,-0.003025
1354.8873,-0.002191
1356.7510,-0.002228
1358.6146,-0.002578
1360.4783,0.002838
1362.3420,0.012041
1364.2056,0.010111
1366.0693,-0.000571
1367.9330,-0.000993
1369.7967,0.000304
1371.6603,-0.000671
1373.5240,0.005331
1375.3877,0.009002
1377.2513,0.002222
1379.1150,0.000205
1380.9787,-0.001795
1382.8423,-0.002962
1384.7060,-0.002241
1386.5697,0.006520
1388.4333,0.012011
1390.2970,0.001494
1392.1607,-0.001669
1394.0244,0.008460
1395.8880,0.016540
1397.7517,0.012352
1399.6154,0.012736
1401.4790,0.004025
1403.3427,0.000459
1405.2064,0.007545
1407.0700,0.003744
1408.9337,-0.001336
1410.7974,-0.000411
1412.6610,-0.000830
1414.5247,-0.000969
1416.3884,0.004322
1418.2520,0.017910
1420.1157,0.026943
1421.9794,0.010220
1423.8431,0.006403
1425.7067,0.005089
1427.5704,-0.000708
1429.4341,0.005967
1431.2977,0.007997
1433.1614,0.002420
1435.0251,0.005623
1436.8887,0.027335
1438.7524,0.017746
1440.6161,-0.000916
1442.4797,-0.001788
1444.3434,-0.002198
1446.2071,0.001535
1448.0707,0.008206
1449.9344,0.006105
1451.7981,0.000864
1453.6618,0.003043
1455.5254,0.014948
1457.3891,0.055477
1459.2528,0.038976
1461.1164,0.008649
1462.9801,-0.000990
1464.8438,0.012059
1466.7074,0.010265
1468.5711,-0.000197
1470.4348,0.003398
1472.2984,0.029708
1474.1621,0.035093
1476.0258,0.022127
1477.8895,0.011902
1479.7531,0.001843
1481.6168,0.002982
1483.4805,0.000685
1485.3441,0.000869
1487.2078,0.013553
1489.0715,0.026442
1490.9351,0.029188
1492.7988,0.010088
1494.6625,0.002832
1496.5261,0.022212
1498.3898,0.026514
1500.2535,0.015970
1502.1171,0.004198
1503.9808,0.000351
1505.8445,0.041342
1507.7082,0.081138
1509.5718,0.047040
1511.4355,0.022639
1513.2992,0.015943
1515.1628,0.017459
1517.0265,0.031892
1518.8902,0.027459
1520.7538,0.039084
1522.6175,0.052466
1524.4812,0.031775
1526.3448,0.029023
1528.2085,0.022442
1530.0722,0.011216
1531.9359,0.009944
1533.7995,0.027713
1535.6632,0.017552
1537.5269,0.007179
1539.3905,0.045450
1541.2542,0.069461
1543.1179,0.052858
1544.9815,0.036272
1546.8452,0.016727
1548.7089,0.009711
1550.5725,0.016661
1552.4362,0.009845
1554.2999,0.018761
1556.1635,0.020906
1558.0272,0.049945
1559.8909,0.087945
1561.7546,0.038444
1563.6182,0.009343
1565.4819,0.007757
1567.3456,0.004516
1569.2092,0.017292
1571.0729,0.021349
1572.9366,0.002353
1574.8002,0.005818
1576.6639,0.029699
1578.5276,0.017475
1580.3912,0.001841
1582.2549,0.000528
1584.1186,-0.000411
1585.9822,0.000043
1587.8459,-0.000575
1589.7096,0.000809
1591.5733,0.000559
1593.4369,0.001759
1595.3006,0.002110
1597.1643,0.001505
1599.0279,-0.000592
1600.8916,0.000636
1602.7553,0.001106
1604.6189,0.001264
1606.4826,0.000816
1608.3463,0.003601
1610.2099,0.002481
1612.0736,0.000584
1613.9373,-0.003541
1615.8010,0.011166
1617.6646,0.026917
1619.5283,0.010293
1621.3920,0.003472
1623.2556,0.016839
1625.1193,0.015585
1626.9830,0.009935
1628.8466,0.011445
1630.7103,0.004576
1632.5740,-0.000454
1634.4376,0.017823
1636.3013,0.046844
1638.1650,0.028980
1640.0286,0.010253
1641.8923,0.003721
1643.7560,0.002268
1645.6197,0.019978
1647.4833,0.041980
1649.3470,0.022188
1651.2107,0.010851
1653.0743,0.067261
1654.9380,0.063988
1656.8017,0.019487
1658.6653,0.004188
1660.5290,0.003190
1662.3927,0.014845
1664.2563,0.014728
1666.1200,0.003634
1667.9837,0.011216
1669.8474,0.032370
1671.7110,0.025083
1673.5747,0.014448
1675.4384,0.026560
1677.3020,0.019640
1679.1657,0.009080
1681.0294,0.010439
1682.8930,0.023377
1684.7567,0.058159
1686.6204,0.036129
1688.4840,0.016859
1690.3477,0.011805
1692.2114,0.003884
1694.0750,0.003807
1695.9387,0.032424
1697.8024,0.030407
1699.6661,0.044953
1701.5297,0.053959
1703.3934,0.025180
1705.2571,0.023542
1707.1207,0.021190
1708.9844,0.010314
1710.8481,0.004650
1712.7117,0.005635
1714.5754,0.016223
1716.4391,0.034522
1718.3027,0.048685
1720.1664,0.026878
1722.0301,0.007411
1723.8937,0.005192
1725.7574,0.002266
1727.6211,0.001673
1729.4848,0.007402
1731.3484,0.009799
1733.2121,0.027196
1735.0758,0.044744
1736.9394,0.018494
1738.8031,0.012767
1740.6668,0.017956
1742.5304,0.016085
1744.3941,0.014279
1746.2578,0.013907
1748.1214,0.019372
1749.9851,0.026528
1751.8488,0.027163
1753.7125,0.012574
1755.5761,0.007620
1757.4398,0.013047
1759.3035,0.008164
1761.1671,0.013226
1763.0308,0.016318
1764.8945,0.005781
1766.7581,0.006038
1768.6218,0.013973
1770.4855,0.015779
1772.3491,0.030077
1774.2128,0.026502
1776.0765,0.012303
1777.9401,0.005331
1779.8038,0.007842
1781.6675,0.009690
1783.5312,0.008183
1785.3948,0.010084
1787.2585,0.005501
1789.1222,0.002851
1790.9858,0.014140
1792.8495,0.025524
1794.7132,0.017261
1796.5768,0.008379
1798.4405,0.007408
1800.3042,0.013709
1802.1678,0.015401
1804.0315,0.008500
1805.8952,0.003304
1807.7589,0.003574
1809.6225,0.006993
1811.4862,0.009598
1813.3499,0.005323
1815.2135,0.001432
1817.0772,0.002608
1818.9409,0.003400
1820.8045,0.002393
1822.6682,0.003353
1824.5319,0.010266
1826.3955,0.012256
1828.2592,0.010766
1830.1229,0.017991
1831.9865,0.013605
1833.8502,0.005095
1835.7139,0.003286
1837.5776,0.004215
1839.4412,0.002915
1841.3049,0.002182
1843.1686,0.011879
1845.0322,0.022398
1846.8959,0.015216
1848.7596,0.008073
1850.6232,0.003948
1852.4869,0.002638
1854.3506,0.002168
1856.2142,0.002428
1858.0779,0.002975
1859.9416,0.003470
1861.8052,0.003027
1863.6689,0.002716
1865.5326,0.003995
1867.3963,0.011096
1869.2599,0.019315
1871.1236,0.014541
1872.9873,0.005475
1874.8509,0.002785
1876.7146,0.002526
1878.5783,0.003080
1880.4419,0.003263
1882.3056,0.002897
1884.1693,0.002884
1886.0329,0.002842
1887.8966,0.004675
1889.7603,0.009447
1891.6240,0.007829
1893.4876,0.004936
1895.3513,0.005516
1897.2150,0.004848
1899.0786,0.003399
1900.9423,0.003014
1902.8060,0.003047
1904.6696,0.003323
1906.5333,0.003562
1908.3970,0.005495
1910.2606,0.006693
1912.1243,0.005152
1913.9880,0.002839
1915.8516,0.003125
1917.7153,0.009144
1919.5790,0.010621
1921.4427,0.007392
1923.3063,0.007858
1925.1700,0.005341
1927.0337,0.002772
1928.8973,0.002381
1930.7610,0.002852
1932.6247,0.002521
1934.4883,0.002972
1936.3520,0.002876
1938.2157,0.002012
1940.0793,0.002420
1941.9430,0.007292
1943.8067,0.008771
1945.6704,0.005639
1947.5340,0.003533
1949.3977,0.002744
1951.2614,0.002426
1953.1250,0.003102
1954.9887,0.002770
1956.8524,0.001460
1958.7160,0.001387
1960.5797,0.002242
1962.4434,0.002623
1964.3070,0.003334
1966.1707,0.004997
1968.0344,0.006565
1969.8980,0.005151
1971.7617,0.003621
1973.6254,0.002932
1975.4891,0.003524
1977.3527,0.006117
1979.2164,0.009663
1981.0801,0.008885
1982.9437,0.007474
1984.8074,0.006812
1986.6711,0.006722
1988.5347,0.007353
1990.3984,0.008660
1992.2621,0.010417
1994.1257,0.009090
1995.9894,0.006193
1997.8531,0.005287
1999.7167,0.004247
2001.5804,0.003598
2003.4441,0.003376
2005.3078,0.003333
2007.1714,0.004052
2009.0351,0.006473
2010.8988,0.006821
2012.7624,0.005380
2014.6261,0.005329
2016.4898,0.007223
2018.3534,0.008072
2020.2171,0.007224
2022.0808,0.006470
2023.9444,0.006863
2025.8081,0.006630
2027.6718,0.006986
2029.5355,0.007240
2031.3991,0.008092
2033.2628,0.008655
2035.1265,0.009872
2036.9901,0.010247
2038.8538,0.010182
2040.7175,0.009898
2042.5811,0.010169
2044.4448,0.010007
2046.3085,0.010481
2048.1721,0.011356
2050.0358,0.011965
2051.8995,0.011272
2053.7631,0.010076
2055.6268,0.009282
2057.4905,0.009439
2059.3542,0.009102
2061.2178,0.008706
2063.0815,0.008672
2064.9452,0.009638
2066.8088,0.009709
2068.6725,0.008938
2070.5362,0.008300
2072.3998,0.009000
2074.2635,0.009112
2076.1272,0.009034
2077.9908,0.009246
2079.8545,0.009534
2081.7182,0.009191
2083.5819,0.008902
2085.4455,0.008464
2087.3092,0.008483
2089.1729,0.008315
2091.0365,0.007385
2092.9002,0.006535
2094.7639,0.006843
2096.6275,0.007560
2098.4912,0.008410
2100.3549,0.008807
2102.2185,0.009241
2104.0822,0.009390
2105.9459,0.009520
2107.8095,0.008756
2109.6732,0.008120
2111.5369,0.007905
2113.4006,0.008214
2115.2642,0.007891
2117.1279,0.007557
2118.9916,0.007548
2120.8552,0.007538
2122.7189,0.006766
2124.5826,0.006000
2126.4462,0.005340
2128.3099,0.005075
2130.1736,0.004380
2132.0372,0.004210
2133.9009,0.004875
2135.7646,0.006165
2137.6282,0.006550
2139.4919,0.006338
2141.3556,0.005925
2143.2193,0.005860
2145.0829,0.005584
2146.9466,0.005689
2148.8103,0.005859
2150.6739,0.006339
2152.5376,0.006338
2154.4013,0.005505
2156.2649,0.004434
2158.1286,0.007946
2159.9923,0.013135
2161.8559,0.014870
2163.7196,0.013791
2165.5833,0.013096
2167.4470,0.012096
2169.3106,0.011028
2171.1743,0.009863
2173.0380,0.008828
2174.9016,0.008345
2176.7653,0.009316
2178.6290,0.009922
2180.4926,0.010574
2182.3563,0.010163
2184.2200,0.009870
2186.0836,0.009920
2187.9473,0.009587
2189.8110,0.009072
2191.6746,0.009236
2193.5383,0.008724
2195.4020,0.009013
2197.2657,0.009151
2199.1293,0.009277
2200.9930,0.008567
2202.8567,0.008638
2204.7203,0.008882
2206.5840,0.008748
2208.4477,0.008349
2210.3113,0.008395
2212.1750,0.008233
2214.0387,0.008728
2215.9023,0.008563
2217.7660,0.008184
2219.6297,0.008033
2221.4934,0.008305
2223.3570,0.007775
2225.2207,0.007457
2227.0844,0.007396
2228.9480,0.008126
2230.8117,0.008006
2232.6754,0.007755
2234.5390,0.007877
2236.4027,0.008586
2238.2664,0.007939
2240.1300,0.007993
2241.9937,0.008033
2243.8574,0.007891
2245.7210,0.007260
2247.5847,0.007249
2249.4484,0.006862
2251.3121,0.006443
2253.1757,0.006821
2255.0394,0.007857
2256.9031,0.008383
2258.7667,0.008492
2260.6304,0.007933
2262.4941,0.007548
2264.3577,0.007070
2266.2214,0.007422
2268.0851,0.008099
2269.9487,0.008257
2271.8124,0.008051
2273.6761,0.008772
2275.5397,0.008818
2277.4034,0.009030
2279.2671,0.009143
2281.1308,0.009267
2282.9944,0.008957
2284.8581,0.009295
2286.7218,0.009324
2288.5854,0.009129
2290.4491,0.008926
2292.3128,0.008863
2294.1764,0.008426
2296.0401,0.008376
2297.9038,0.008883
2299.7674,0.009536
2301.6311,0.009541
2303.4948,0.009550
2305.3585,0.009703
2307.2221,0.010031
2309.0858,0.010284
2310.9495,0.010685
2312.8131,0.011082
2314.6768,0.011352
2316.5405,0.011258
2318.4041,0.011575
2320.2678,0.012102
2322.1315,0.013028
2323.9951,0.013250
2325.8588,0.011519
2327.7225,0.009018
2329.5861,0.008271
2331.4498,0.008441
2333.3135,0.008498
2335.1772,0.007977
2337.0408,0.007951
2338.9045,0.008483
2340.7682,0.009618
2342.6318,0.011288
2344.4955,0.014649
2346.3592,0.015756
2348.2228,0.011813
2350.0865,0.004473
2351.9502,0.000116
2353.8138,0.002093
2355.6775,0.005585
2357.5412,0.006781
2359.4049,0.007514
2361.2685,0.008798
2363.1322,0.010262
2364.9959,0.012021
2366.8595,0.013942
2368.7232,0.015601
2370.5869,0.016872
2372.4505,0.017365
2374.3142,0.016970
2376.1779,0.015561
2378.0415,0.013833
2379.9052,0.011955
2381.7689,0.010143
2383.6325,0.008391
2385.4962,0.007077
2387.3599,0.006136
2389.2236,0.005984
2391.0872,0.005982
2392.9509,0.006154
2394.8146,0.006097
2396.6782,0.005913
2398.5419,0.005939
2400.4056,0.006404
2402.2692,0.006317
2404.1329,0.006003
2405.9966,0.006263
2407.8602,0.006667
2409.7239,0.006708
2411.5876,0.006814
2413.4512,0.006603
2415.3149,0.006365
2417.1786,0.006307
2419.0423,0.006514
2420.9059,0.006633
2422.7696,0.006573
2424.6333,0.006353
2426.4969,0.006533
2428.3606,0.006700
2430.2243,0.006644
2432.0879,0.006563
2433.9516,0.006795
2435.8153,0.006815
2437.6789,0.007041
2439.5426,0.007001
2441.4063,0.006652
2443.2700,0.006514
2445.1336,0.007034
2446.9973,0.007465
2448.8610,0.007621
2450.7246,0.007304
2452.5883,0.007377
2454.4520,0.007549
2456.3156,0.007413
2458.1793,0.006882
2460.0430,0.006917
2461.9066,0.006911
2463.7703,0.006613
2465.6340,0.006782
2467.4976,0.007408
2469.3613,0.007385
2471.2250,0.007344
2473.0887,0.007026
2474.9523,0.006486
2476.8160,0.006348
2478.6797,0.006907
2480.5433,0.007146
2482.4070,0.007090
2484.2707,0.006730
2486.1343,0.006519
2487.9980,0.006525
2489.8617,0.006807
2491.7253,0.006615
2493.5890,0.006804
2495.4527,0.007150
2497.3164,0.007255
2499.1800,0.007055
2501.0437,0.006913
2502.9074,0.006570
2504.7710,0.006157
2506.6347,0.006243
2508.4984,0.006895
2510.3620,0.006878
2512.2257,0.006826
2514.0894,0.007094
2515.9530,0.007299
2517.8167,0.006873
2519.6804,0.006629
2521.5440,0.006799
2523.4077,0.006939
2525.2714,0.006611
2527.1351,0.006614
2528.9987,0.006720
2530.8624,0.006617
2532.7261,0.006474
2534.5897,0.006734
2536.4534,0.006836
2538.3171,0.006484
2540.1807,0.006286
2542.0444,0.006822
2543.9081,0.007491
2545.7717,0.007600
2547.6354,0.006814
2549.4991,0.006476
2551.3627,0.006903
2553.2264,0.007189
2555.0901,0.006792
2556.9538,0.006780
2558.8174,0.007060
2560.6811,0.007165
2562.5448,0.007107
2564.4084,0.007133
2566.2721,0.007410
2568.1358,0.008110
2569.9994,0.007792
2571.8631,0.007082
2573.7268,0.007037
2575.5904,0.007336
2577.4541,0.007186
2579.3178,0.007016
2581.1815,0.007340
2583.0451,0.007632
2584.9088,0.007444
2586.7725,0.007817
2588.6361,0.007880
2590.4998,0.007098
2592.3635,0.006610
2594.2271,0.006863
2596.0908,0.007416
2597.9545,0.007960
2599.8181,0.007720
2601.6818,0.007651
2603.5455,0.008020
2605.4091,0.008022
2607.2728,0.007721
2609.1365,0.007596
2611.0002,0.007704
2612.8638,0.008166
2614.7275,0.008159
2616.5912,0.007754
2618.4548,0.007595
2620.3185,0.007883
2622.1822,0.008011
2624.0458,0.008102
2625.9095,0.007930
2627.7732,0.007605
2629.6368,0.007518
2631.5005,0.007584
2633.3642,0.007527
2635.2279,0.007817
2637.0915,0.008183
2638.9552,0.008024
2640.8189,0.007876
2642.6825,0.007905
2644.5462,0.007712
2646.4099,0.007886
2648.2735,0.008083
2650.1372,0.007765
2652.0009,0.007351
2653.8645,0.007347
2655.7282,0.007446
2657.5919,0.007290
2659.4555,0.006850
2661.3192,0.006809
2663.1829,0.006725
2665.0466,0.006189
2666.9102,0.006066
2668.7739,0.006527
2670.6376,0.006399
2672.5012,0.006114
2674.3649,0.006295
2676.2286,0.006432
2678.0922,0.006332
2679.9559,0.006201
2681.8196,0.005917
2683.6832,0.005809
2685.5469,0.006071
2687.4106,0.006328
2689.2742,0.006150
2691.1379,0.005905
2693.0016,0.005953
2694.8653,0.006000
2696.7289,0.005987
2698.5926,0.006098
2700.4563,0.006082
2702.3199,0.006117
2704.1836,0.005998
2706.0473,0.005860
2707.9109,0.005676
2709.7746,0.005650
2711.6383,0.005791
2713.5019,0.005643
2715.3656,0.005392
2717.2293,0.005669
2719.0930,0.005923
2720.9566,0.005594
2722.8203,0.005481
2724.6840,0.005527
2726.5476,0.005428
2728.4113,0.005243
2730.2750,0.005230
2732.1386,0.005571
2734.0023,0.005584
2735.8660,0.005118
2737.7296,0.004796
2739.5933,0.005174
2741.4570,0.005512
2743.3206,0.005564
2745.1843,0.005384
2747.0480,0.005126
2748.9117,0.004826
2750.7753,0.004491
2752.6390,0.004683
2754.5027,0.005114
2756.3663,0.005012
2758.2300,0.004696
2760.0937,0.004562
2761.9573,0.004459
2763.8210,0.004471
2765.6847,0.004634
2767.5483,0.004503
2769.4120,0.004322
2771.2757,0.004469
2773.1394,0.004475
2775.0030,0.004269
2776.8667,0.004365
2778.7304,0.004275
2780.5940,0.004021
2782.4577,0.004179
2784.3214,0.004134
2786.1850,0.004257
2788.0487,0.004772
2789.9124,0.004584
2791.7760,0.004048
2793.6397,0.003650
2795.5034,0.003462
2797.3670,0.003667
2799.2307,0.003869
2801.0944,0.003694
2802.9581,0.003345
2804.8217,0.003455
2806.6854,0.003702
2808.5491,0.003473
2810.4127,0.003142
2812.2764,0.003222
2814.1401,0.003297
2816.0037,0.003188
2817.8674,0.003322
2819.7311,0.003448
2821.5947,0.003306
2823.4584,0.003345
2825.3221,0.003310
2827.1857,0.003054
2829.0494,0.002881
2830.9131,0.002806
2832.7768,0.002631
2834.6404,0.002536
2836.5041,0.002656
2838.3678,0.002581
2840.2314,0.001686
2842.0951,0.000428
2843.9588,-0.000488
2845.8224,-0.000744
2847.6861,-0.000207
2849.5498,0.000800
2851.4134,0.001501
2853.2771,0.001993
2855.1408,0.002065
2857.0045,0.001932
2858.8681,0.001835
2860.7318,0.001904
2862.5955,0.002064
2864.4591,0.002227
2866.3228,0.002130
2868.1865,0.002256
2870.0501,0.002239
2871.9138,0.001839
2873.7775,0.001902
2875.6411,0.002029
2877.5048,0.001332
2879.3685,0.001235
2881.2321,0.001285
2883.0958,0.000825
2884.9595,0.000743
2886.8232,0.001326
2888.6868,0.001460
2890.5505,0.001041
2892.4142,0.000715
2894.2778,0.000648
2896.1415,0.000387
2898.0052,-0.000125
2899.8688,-0.000017
2901.7325,0.000384
2903.5962,0.000151
2905.4598,-0.000388
2907.3235,-0.001015
2909.1872,-0.001662
2911.0509,-0.002328
2912.9145,-0.002991
2914.7782,-0.004016
2916.6419,-0.003851
2918.5055,-0.002336
2920.3692,-0.001358
2922.2329,-0.001089
2924.0965,-0.000424
2925.9602,0.000018
2927.8239,0.000267
2929.6875,0.000502
2931.5512,0.000448
2933.4149,0.000572
2935.2785,0.001159
2937.1422,0.001338
2939.0059,0.001335
2940.8696,0.001013
2942.7332,0.000527
2944.5969,0.000329
2946.4606,-0.000110
2948.3242,-0.000952
2950.1879,-0.000889
2952.0516,-0.000883
2953.9152,-0.001310
2955.7789,-0.001161
2957.6426,-0.000637
2959.5062,-0.000176
2961.3699,0.000489
2963.2336,0.000556
2965.0972,-0.000020
2966.9609,-0.000223
2968.8246,-0.000088
2970.6883,-0.000194
2972.5519,-0.000224
2974.4156,0.000015
2976.2793,-0.000291
2978.1429,-0.000765
2980.0066,-0.000512
2981.8703,-0.000660
2983.7339,-0.000663
2985.5976,-0.000244
2987.4613,-0.000307
2989.3249,-0.000334
2991.1886,-0.000098
2993.0523,-0.000658
2994.9160,-0.000971
2996.7796,-0.000929
2998.6433,-0.000825
3000.5070,-0.001258
3002.3706,-0.001232
3004.2343,-0.001166
3006.0980,-0.001085
3007.9616,-0.001086
3009.8253,-0.001094
3011.6890,-0.000775
3013.5526,-0.000804
3015.4163,-0.001421
3017.2800,-0.001701
3019.1436,-0.001999
3021.0073,-0.002268
3022.8710,-0.002558
3024.7347,-0.001967
3026.5983,-0.001702
3028.4620,-0.002118
3030.3257,-0.001693
3032.1893,-0.000968
3034.0530,-0.001490
3035.9167,-0.002113
3037.7803,-0.001846
3039.6440,-0.001583
3041.5077,-0.002475
3043.3713,-0.002810
3045.2350,-0.002430
3047.0987,-0.002818
3048.9624,-0.003019
3050.8260,-0.002451
3052.6897,-0.002816
3054.5534,-0.003294
3056.4170,-0.003006
3058.2807,-0.002638
3060.1444,-0.002794
3062.0080,-0.002966
3063.8717,-0.002919
3065.7354,-0.002246
3067.5990,-0.002461
3069.4627,-0.002931
3071.3264,-0.003465
3073.1900,-0.004116
3075.0537,-0.004217
3076.9174,-0.003875
3078.7811,-0.003583
3080.6447,-0.003201
3082.5084,-0.003440
3084.3721,-0.004163
3086.2357,-0.004277
3088.0994,-0.003973
3089.9631,-0.004376
3091.8267,-0.005402
3093.6904,-0.005617
3095.5541,-0.004469
3097.4177,-0.004110
3099.2814,-0.004504
3101.1451,-0.004814
3103.0087,-0.004506
3104.8724,-0.004370
3106.7361,-0.004788
3108.5998,-0.005319
3110.4634,-0.005657
3112.3271,-0.006036
3114.1908,-0.005812
3116.0544,-0.005150
3117.9181,-0.004637
3119.7818,-0.005602
3121.6454,-0.006269
3123.5091,-0.006446
3125.3728,-0.006452
3127.2364,-0.006462
3129.1001,-0.006414
3130.9638,-0.006450
3132.8275,-0.006549
3134.6911,-0.006768
3136.5548,-0.006798
3138.4185,-0.006931
3140.2821,-0.006886
3142.1458,-0.007723
3144.0095,-0.007743
3145.8731,-0.007580
3147.7368,-0.007925
3149.6005,-0.008525
3151.4641,-0.008113
3153.3278,-0.007838
3155.1915,-0.008146
3157.0551,-0.008384
3158.9188,-0.008625
3160.7825,-0.009030
3162.6462,-0.009253
3164.5098,-0.009190
3166.3735,-0.008905
3168.2372,-0.009226
3170.1008,-0.009502
3171.9645,-0.009394
3173.8282,-0.009505
3175.6918,-0.010093
3177.5555,-0.009159
3179.4192,-0.008522
3181.2828,-0.009254
3183.1465,-0.010584
3185.0102,-0.010591
3186.8739,-0.010354
3188.7375,-0.010083
3190.6012,-0.010356
3192.4649,-0.011078
3194.3285,-0.011114
3196.1922,-0.010759
3198.0559,-0.010789
3199.9195,-0.010320
3201.7832,-0.010579
3203.6469,-0.011193
3205.5105,-0.011524
3207.3742,-0.011665
3209.2379,-0.012053
3211.1015,-0.011707
3212.9652,-0.011728
3214.8289,-0.011836
3216.6926,-0.011762
3218.5562,-0.011912
3220.4199,-0.011873
3222.2836,-0.011481
3224.1472,-0.012162
3226.0109,-0.013375
3227.8746,-0.012835
3229.7382,-0.011486
3231.6019,-0.011551
3233.4656,-0.012240
3235.3292,-0.012755
3237.1929,-0.012888
3239.0566,-0.013400
3240.9202,-0.013871
3242.7839,-0.013212
3244.6476,-0.012922
3246.5113,-0.012706
3248.3749,-0.012400
3250.2386,-0.013623
3252.1023,-0.014054
3253.9659,-0.013851
3255.8296,-0.013721
3257.6933,-0.014220
3259.5569,-0.014118
3261.4206,-0.014462
3263.2843,-0.015063
3265.1479,-0.015011
3267.0116,-0.014395
3268.8753,-0.013990
3270.7390,-0.013486
3272.6026,-0.013845
3274.4663,-0.013770
3276.3300,-0.014593
3278.1936,-0.015412
3280.0573,-0.015453
3281.9210,-0.014932
3283.7846,-0.014300
3285.6483,-0.013652
3287.5120,-0.015081
3289.3756,-0.016524
3291.2393,-0.015529
3293.1030,-0.014641
3294.9666,-0.015176
3296.8303,-0.015749
3298.6940,-0.016635
3300.5577,-0.017356
3302.4213,-0.016814
3304.2850,-0.016570
3306.1487,-0.017027
3308.0123,-0.016493
3309.8760,-0.016593
3311.7397,-0.017106
3313.6033,-0.017063
3315.4670,-0.017206
3317.3307,-0.017818
3319.1943,-0.017471
3321.0580,-0.017922
3322.9217,-0.017497
3324.7854,-0.017523
3326.6490,-0.018016
3328.5127,-0.018147
3330.3764,-0.018518
3332.2400,-0.018057
3334.1037,-0.017328
3335.9674,-0.018272
3337.8310,-0.017916
3339.6947,-0.017663
3341.5584,-0.019134
3343.4220,-0.019189
3345.2857,-0.018775
3347.1494,-0.019353
3349.0130,-0.019774
3350.8767,-0.019969
3352.7404,-0.020121
3354.6041,-0.020846
3356.4677,-0.019938
3358.3314,-0.018790
3360.1951,-0.018799
3362.0587,-0.019103
3363.9224,-0.019477
3365.7861,-0.019546
3367.6497,-0.018993
3369.5134,-0.018409
3371.3771,-0.018204
3373.2407,-0.019103
3375.1044,-0.019800
3376.9681,-0.020037
3378.8317,-0.019533
3380.6954,-0.021411
3382.5591,-0.022257
3384.4228,-0.022027
3386.2864,-0.021000
3388.1501,-0.020327
3390.0138,-0.020922
3391.8774,-0.020878
3393.7411,-0.019968
3395.6048,-0.020194
3397.4684,-0.020070
3399.3321,-0.019927
3401.1958,-0.019987
3403.0594,-0.020754
3404.9231,-0.022649
3406.7868,-0.023057
3408.6505,-0.021766
3410.5141,-0.021070
3412.3778,-0.021440
3414.2415,-0.021705
3416.1051,-0.021869
3417.9688,-0.020544
3419.8325,-0.018200
3421.6961,-0.019319
3423.5598,-0.020042
3425.4235,-0.020945
3427.2871,-0.021247
3429.1508,-0.020979
3431.0145,-0.021624
3432.8781,-0.022369
3434.7418,-0.021115
3436.6055,-0.022141
3438.4692,-0.022947
3440.3328,-0.022293
3442.1965,-0.021022
3444.0602,-0.019758
3445.9238,-0.019985
3447.7875,-0.019139
3449.6512,-0.018899
3451.5148,-0.021461
3453.3785,-0.021571
3455.2422,-0.021204
3457.1058,-0.020997
3458.9695,-0.019204
3460.8332,-0.018921
3462.6969,-0.021401
3464.5605,-0.022134
3466.4242,-0.021881
3468.2879,-0.021553
3470.1515,-0.021192
3472.0152,-0.021288
3473.8789,-0.020166
3475.7425,-0.020438
3477.6062,-0.021964
3479.4699,-0.021578
3481.3335,-0.021083
3483.1972,-0.021868
3485.0609,-0.021056
3486.9245,-0.019215
3488.7882,-0.019235
3490.6519,-0.021079
3492.5156,-0.021620
3494.3792,-0.020861
3496.2429,-0.020945
3498.1066,-0.019489
3499.9702,-0.018629
3501.8339,-0.017650
3503.6976,-0.014766
3505.5612,-0.015363
3507.4249,-0.018711
3509.2886,-0.019042
3511.1522,-0.017272
3513.0159,-0.018053
3514.8796,-0.020067
3516.7432,-0.021141
3518.6069,-0.020881
3520.4706,-0.019909
3522.3343,-0.018655
3524.1979,-0.014582
3526.0616,-0.013560
3527.9253,-0.014911
3529.7889,-0.014434
3531.6526,-0.017488
3533.5163,-0.020112
3535.3799,-0.019330
3537.2436,-0.017972
3539.1073,-0.019213
3540.9709,-0.021066
3542.8346,-0.019139
3544.6983,-0.013811
3546.5620,-0.009719
3548.4256,-0.010684
3550.2893,-0.015914
3552.1530,-0.017311
3554.0166,-0.013590
3555.8803,-0.016363
3557.7440,-0.020481
3559.6076,-0.020786
3561.4713,-0.018887
3563.3350,-0.016615
3565.1986,-0.009737
3567.0623,0.003046
3568.9260,0.009488
3570.7896,-0.003278
3572.6533,-0.016726
3574.5170,-0.018839
3576.3807,-0.017157
3578.2443,-0.017131
3580.1080,-0.017235
3581.9717,-0.018583
3583.8353,-0.019645
3585.6990,-0.014096
3587.5627,-0.000291
3589.4263,0.007277
3591.2900,-0.003405
3593.1537,-0.012168
3595.0173,-0.009380
3596.8810,-0.006342
3598.7447,-0.009423
3600.6084,-0.013568
3602.4720,-0.016379
3604.3357,-0.019436
3606.1994,-0.017748
3608.0630,-0.009193
3609.9267,-0.000429
3611.7904,0.000864
3613.6540,-0.002082
3615.5177,-0.003706
3617.3814,-0.005984
3619.2450,0.002263
3621.1087,0.006713
3622.9724,-0.008284
3624.8360,-0.025397
3626.6997,-0.022706
3628.5634,-0.000433
3630.4271,0.026018
3632.2907,0.012038
3634.1544,-0.008879
3636.0181,-0.013408
3637.8817,-0.018911
3639.7454,-0.020521
3641.6091,-0.021069
3643.4727,-0.023102
3645.3364,-0.023482
3647.2001,-0.009627
3649.0637,0.019169
3650.9274,0.031850
3652.7911,0.017433
3654.6547,-0.007085
3656.5184,-0.010706
3658.3821,-0.006029
3660.2458,-0.016744
3662.1094,-0.023740
3663.9731,-0.026246
3665.8368,-0.028590
3667.7004,-0.025024
3669.5641,-0.011808
3671.4278,0.004507
3673.2914,0.003282
3675.1551,0.002961
3677.0188,0.023921
3678.8824,0.010910
3680.7461,-0.010481
3682.6098,-0.021750
3684.4735,-0.029596
3686.3371,-0.029917
3688.2008,-0.016430
3690.0645,0.010166
3691.9281,0.010770
3693.7918,-0.005849
3695.6555,-0.020703
3697.5191,-0.025324
3699.3828,-0.025202
3701.2465,-0.020240
3703.1101,-0.011852
3704.9738,-0.017008
3706.8375,-0.027433
3708.7011,-0.024435
3710.5648,-0.007993
3712.4285,0.007441
3714.2922,0.004838
3716.1558,-0.012650
3718.0195,-0.023484
3719.8832,-0.020511
3721.7468,-0.016420
3723.6105,-0.010582
3725.4742,-0.010122
3727.3378,-0.012661
3729.2015,-0.018386
3731.0652,-0.024018
3732.9288,-0.008324
3734.7925,0.015349
3736.6562,0.023755
3738.5199,0.012825
3740.3835,-0.013218
3742.2472,-0.022199
3744.1109,-0.009908
3745.9745,0.018334
3747.8382,0.008145
3749.7019,0.000768
3751.5655,0.018869
3753.4292,0.021083
3755.2929,0.002242
3757.1565,-0.013973
3759.0202,-0.013633
3760.8839,-0.010328
3762.7475,-0.015659
3764.6112,-0.024648
3766.4749,-0.020186
3768.3386,-0.015485
3770.2022,-0.012670
3772.0659,-0.010930
3773.9296,-0.022622
3775.7932,-0.030319
3777.6569,-0.028401
3779.5206,-0.020501
3781.3842,-0.014522
3783.2479,-0.019347
3785.1116,-0.022883
3786.9752,-0.022808
3788.8389,-0.026202
3790.7026,-0.029598
3792.5662,-0.031415
3794.4299,-0.030572
3796.2936,-0.027471
3798.1573,-0.020260
3800.0209,-0.017748
3801.8846,-0.007383
3803.7483,0.002145
3805.6119,-0.011100
3807.4756,-0.011656
3809.3393,-0.008780
3811.2029,-0.025792
3813.0666,-0.035626
3814.9303,-0.032571
3816.7939,-0.016007
3818.6576,-0.004683
3820.5213,-0.006797
3822.3850,0.004028
3824.2486,-0.000329
3826.1123,-0.018102
3827.9760,-0.021927
3829.8396,-0.024008
3831.7033,-0.025223
3833.5670,-0.019950
3835.4306,-0.016811
3837.2943,-0.008897
3839.1580,0.005950
3841.0216,0.007879
3842.8853,-0.003804
3844.7490,-0.013746
3846.6126,-0.023825
3848.4763,-0.035131
3850.3400,-0.039330
3852.2037,-0.022182
3854.0673,0.019786
3855.9310,0.032269
3857.7947,0.002355
3859.6583,-0.022149
3861.5220,-0.027053
3863.3857,-0.019144
3865.2493,-0.013072
3867.1130,-0.011870
3868.9767,-0.015216
3870.8403,-0.003372
3872.7040,0.000683
3874.5677,-0.011137
3876.4314,-0.018317
3878.2950,-0.025058
3880.1587,-0.022898
3882.0224,-0.011899
3883.8860,-0.013993
3885.7497,-0.015719
3887.6134,-0.009025
3889.4770,-0.017152
3891.3407,-0.019668
3893.2044,-0.014327
3895.0680,-0.021691
3896.9317,-0.030144
3898.7954,-0.026197
3900.6590,-0.012700
3902.5227,-0.000835
3904.3864,0.003110
3906.2501,-0.002847
3908.1137,-0.017830
3909.9774,-0.030147
3911.8411,-0.033576
3913.7047,-0.032118
3915.5684,-0.029505
3917.4321,-0.022156
3919.2957,-0.016696
3921.1594,-0.019106
3923.0231,-0.023467
3924.8867,-0.024471
3926.7504,-0.023654
3928.6141,-0.026174
3930.4777,-0.026940
3932.3414,-0.022932
3934.2051,-0.021097
3936.0688,-0.026028
3937.9324,-0.030916
3939.7961,-0.031315
3941.6598,-0.029554
3943.5234,-0.025237
3945.3871,-0.023934
3947.2508,-0.026414
3949.1144,-0.025659
3950.9781,-0.024590
3952.8418,-0.026577
3954.7054,-0.029295
3956.5691,-0.030892
3958.4328,-0.031220
3960.2965,-0.030779
3962.1601,-0.029264
3964.0238,-0.029890
3965.8875,-0.031766
3967.7511,-0.032294
3969.6148,-0.031291
3971.4785,-0.030587
3973.3421,-0.030461
3975.2058,-0.030292
3977.0695,-0.029735
3978.9331,-0.031101
3980.7968,-0.032543
3982.6605,-0.032794
3984.5241,-0.032092
3986.3878,-0.031727
3988.2515,-0.031250
3990.1152,-0.031304
3991.9788,-0.031634
3993.8425,-0.031601
3995.7062,-0.030949
3997.5698,-0.031302
3999.4335,-0.031807
4001.2972,-0.032319
4003.1608,-0.032332
4005.0245,-0.032131
4006.8882,-0.031933
4008.7518,-0.032554
4010.6155,-0.032351
4012.4792,-0.032044
4014.3429,-0.032133
4016.2065,-0.032753
4018.0702,-0.032931
4019.9339,-0.033001
4021.7975,-0.032375
4023.6612,-0.032265
4025.5249,-0.032234
4027.3885,-0.032693
4029.2522,-0.032927
4031.1159,-0.032957
4032.9795,-0.032590
4034.8432,-0.033010
4036.7069,-0.032998
4038.5705,-0.033005
4040.4342,-0.032113
4042.2979,-0.031820
4044.1616,-0.031961
4046.0252,-0.032689
4047.8889,-0.032930
4049.7526,-0.032787
4051.6162,-0.031936
4053.4799,-0.032478
4055.3436,-0.032789
4057.2072,-0.033199
4059.0709,-0.033168
4060.9346,-0.032401
4062.7982,-0.032054
4064.6619,-0.032777
4066.5256,-0.031921
4068.3892,-0.032372
4070.2529,-0.032597
4072.1166,-0.032102
4073.9803,-0.032129
4075.8439,-0.032984
4077.7076,-0.033402
4079.5713,-0.033295
4081.4349,-0.032452
4083.2986,-0.033122
4085.1623,-0.033046
4087.0259,-0.033036
4088.8896,-0.032306
4090.7533,-0.032371
4092.6169,-0.032916
4094.4806,-0.033934
4096.3443,-0.033491
4098.2080,-0.032728
4100.0716,-0.032612
4101.9353,-0.032899
4103.7990,-0.031616
4105.6626,-0.030918
4107.5263,-0.031558
4109.3900,-0.032723
4111.2536,-0.032578
4113.1173,-0.032572
4114.9810,-0.032314
4116.8446,-0.032550
4118.7083,-0.033660
4120.5720,-0.034434
4122.4356,-0.032536
4124.2993,-0.032409
4126.1630,-0.032952
4128.0267,-0.033315
4129.8903,-0.032609
4131.7540,-0.032216
4133.6177,-0.033216
4135.4813,-0.033696
4137.3450,-0.032493
4139.2087,-0.032963
4141.0723,-0.032633
4142.9360,-0.032115
4144.7997,-0.031460
4146.6633,-0.032058
4148.5270,-0.032707
4150.3907,-0.032428
4152.2544,-0.031770
4154.1180,-0.031330
4155.9817,-0.030967
4157.8454,-0.031742
4159.7090,-0.031547
4161.5727,-0.032093
4163.4364,-0.033115
4165.3000,-0.033277
4167.1637,-0.032688
4169.0274,-0.032864
4170.8910,-0.031579
4172.7547,-0.030570
4174.6184,-0.030786
4176.4820,-0.032308
4178.3457,-0.032376
4180.2094,-0.031748
4182.0731,-0.030871
4183.9367,-0.031197
4185.8004,-0.031245
4187.6641,-0.031178
4189.5277,-0.030404
4191.3914,-0.031006
4193.2551,-0.031442
4195.1187,-0.031603
4196.9824,-0.030565
4198.8461,-0.030869
4200.7097,-0.031214
4202.5734,-0.030035
4204.4371,-0.029867
4206.3007,-0.031019
4208.1644,-0.030817
4210.0281,-0.030849
4211.8918,-0.030668
4213.7554,-0.030112
4215.6191,-0.029971
4217.4828,-0.031515
4219.3464,-0.031107
4221.2101,-0.030510
4223.0738,-0.029653
4224.9374,-0.029364
4226.8011,-0.029584
4228.6648,-0.031249
4230.5284,-0.031377
4232.3921,-0.031212
4234.2558,-0.030233
4236.1195,-0.030543
4237.9831,-0.031006
4239.8468,-0.031047
4241.7105,-0.030016
4243.5741,-0.029830
4245.4378,-0.029929
4247.3015,-0.030863
4249.1651,-0.030527
4251.0288,-0.030175
4252.8925,-0.029793
4254.7561,-0.030483
4256.6198,-0.030954
4258.4835,-0.030829
4260.3471,-0.030253
4262.2108,-0.030607
4264.0745,-0.030168
4265.9382,-0.029818
4267.8018,-0.029283
4269.6655,-0.030322
4271.5292,-0.030358
4273.3928,-0.029765
4275.2565,-0.029541
4277.1202,-0.029998
4278.9838,-0.030012
4280.8475,-0.029420
4282.7112,-0.028945
4284.5748,-0.029156
4286.4385,-0.028397
4288.3022,-0.029377
4290.1659,-0.029066
4292.0295,-0.028636
4293.8932,-0.028757
4295.7569,-0.029229
4297.6205,-0.028881
4299.4842,-0.029202
4301.3479,-0.029709
4303.2115,-0.029796
4305.0752,-0.028822
4306.9389,-0.029059
4308.8025,-0.029489
4310.6662,-0.029756
4312.5299,-0.028577
4314.3935,-0.029136
4316.2572,-0.029079
4318.1209,-0.028615
4319.9846,-0.028063
4321.8482,-0.028141
4323.7119,-0.027620
4325.5756,-0.028497
4327.4392,-0.028133
4329.3029,-0.027937
4331.1666,-0.027922
4333.0302,-0.027538
4334.8939,-0.027437
4336.7576,-0.029199
4338.6212,-0.028864
4340.4849,-0.027988
4342.3486,-0.027540
4344.2122,-0.027966
4346.0759,-0.028342
4347.9396,-0.028590
4349.8033,-0.027760
4351.6669,-0.027328
4353.5306,-0.027110
4355.3943,-0.027632
4357.2579,-0.027995
4359.1216,-0.028688
4360.9853,-0.027909
4362.8489,-0.026878
4364.7126,-0.026674
4366.5763,-0.027120
4368.4399,-0.026906
4370.3036,-0.027552
4372.1673,-0.027214
4374.0310,-0.027428
4375.8946,-0.027384
4377.7583,-0.027085
4379.6220,-0.026863
4381.4856,-0.027356
4383.3493,-0.026417
4385.2130,-0.026351
4387.0766,-0.027321
4388.9403,-0.026916
4390.8040,-0.026240
4392.6676,-0.027454
4394.5313,-0.027471
4396.3950,-0.026779
4398.2586,-0.026049
4400.1223,-0.027018
4401.9860,-0.026295
4403.8497,-0.025668
4405.7133,-0.025784
4407.5770,-0.026666
4409.4407,-0.026252
4411.3043,-0.026280
4413.1680,-0.025851
4415.0317,-0.025217
4416.8953,-0.025332
4418.7590,-0.026461
4420.6227,-0.025751
4422.4863,-0.025605
4424.3500,-0.025706
4426.2137,-0.026392
4428.0774,-0.026942
4429.9410,-0.026431
4431.8047,-0.025079
4433.6684,-0.024893
4435.5320,-0.025403
4437.3957,-0.026581
4439.2594,-0.025373
4441.1230,-0.024746
4442.9867,-0.024819
4444.8504,-0.025153
4446.7140,-0.025067
4448.5777,-0.025509
4450.4414,-0.025506
4452.3050,-0.024367
4454.1687,-0.024069
4456.0324,-0.025663
4457.8961,-0.026023
4459.7597,-0.024771
4461.6234,-0.024014
4463.4871,-0.024723
4465.3507,-0.023846
4467.2144,-0.023820
4469.0781,-0.024394
4470.9417,-0.024906
4472.8054,-0.024633
4474.6691,-0.024206
4476.5327,-0.024116
4478.3964,-0.025756
4480.2601,-0.024682
4482.1237,-0.023890
4483.9874,-0.024816
4485.8511,-0.025927
4487.7148,-0.024755
4489.5784,-0.024705
4491.4421,-0.024670
4493.3058,-0.023928
4495.1694,-0.023563
4497.0331,-0.024364
4498.8968,-0.023400
4500.7604,-0.022589
