Wavenumber,Intensity
650.4205,0.044975
652.2841,0.044480
654.1478,0.044535
656.0115,0.043091
657.8751,0.042034
659.7388,0.042561
661.6025,0.042565
663.4661,0.042429
665.3298,0.042324
667.1935,0.041906
669.0571,0.041234
670.9208,0.040607
672.7845,0.039805
674.6481,0.039308
676.5118,0.039796
678.3755,0.039905
680.2392,0.039273
682.1028,0.038354
683.9665,0.038279
685.8302,0.038582
687.6938,0.038062
689.5575,0.037849
691.4212,0.038206
693.2848,0.038486
695.1485,0.038081
697.0122,0.037094
698.8758,0.036556
700.7395,0.036752
702.6032,0.037233
704.4669,0.037409
706.3305,0.036302
708.1942,0.035644
710.0579,0.036183
711.9215,0.036036
713.7852,0.035874
715.6489,0.035596
717.5125,0.034761
719.3762,0.033812
721.2399,0.033236
723.1035,0.033563
724.9672,0.033571
726.8309,0.033200
728.6945,0.033117
730.5582,0.032830
732.4219,0.032429
734.2856,0.032591
736.1492,0.032414
738.0129,0.032032
739.8766,0.032319
741.7402,0.032177
743.6039,0.031697
745.4676,0.031437
747.3312,0.031221
749.1949,0.031097
751.0586,0.031054
752.9222,0.031250
754.7859,0.031240
756.6496,0.030467
758.5132,0.030058
760.3769,0.030084
762.2406,0.029890
764.1043,0.030219
765.9679,0.030626
767.8316,0.030259
769.6953,0.029964
771.5589,0.029974
773.4226,0.029602
775.2863,0.029209
777.1499,0.029473
779.0136,0.029604
780.8773,0.029151
782.7409,0.029028
784.6046,0.029177
786.4683,0.028799
788.3320,0.028482
790.1956,0.028561
792.0593,0.028484
793.9230,0.028192
795.7866,0.027870
797.6503,0.027643
799.5140,0.027690
801.3776,0.027643
803.2413,0.027347
805.1050,0.027313
806.9686,0.027538
808.8323,0.027419
810.6960,0.026992
812.5596,0.026930
814.4233,0.026882
816.2870,0.026664
818.1507,0.026550
820.0143,0.026598
821.8780,0.026607
823.7417,0.026557
825.6053,0.026369
827.4690,0.025919
829.3327,0.025771
831.1963,0.025888
833.0600,0.025857
834.9237,0.025739
836.7873,0.025744
838.6510,0.025803
840.5147,0.025731
842.3784,0.025868
844.2420,0.026082
846.1057,0.026037
847.9694,0.026075
849.8330,0.026406
851.6967,0.026482
853.5604,0.026398
855.4240,0.026664
857.2877,0.026928
859.1514,0.027094
861.0150,0.027395
862.8787,0.027882
864.7424,0.028360
866.6060,0.028606
868.4697,0.028873
870.3334,0.029360
872.1971,0.029888
874.0607,0.030103
875.9244,0.029928
877.7881,0.029593
879.6517,0.029357
881.5154,0.029271
883.3791,0.029155
885.2427,0.029150
887.1064,0.029230
888.9701,0.029278
890.8337,0.029353
892.6974,0.029506
894.5611,0.029657
896.4247,0.029846
898.2884,0.030025
900.1521,0.030098
902.0158,0.030247
903.8794,0.030389
905.7431,0.030526
907.6068,0.030699
909.4704,0.030875
911.3341,0.031120
913.1978,0.031363
915.0614,0.031533
916.9251,0.031595
918.7888,0.031629
920.6524,0.031832
922.5161,0.032117
924.3798,0.032288
926.2435,0.032395
928.1071,0.032625
929.9708,0.032969
931.8345,0.033273
933.6981,0.033620
935.5618,0.033989
937.4255,0.034302
939.2891,0.034719
941.1528,0.035138
943.0165,0.035515
944.8801,0.035946
946.7438,0.036367
948.6075,0.036768
950.4711,0.037157
952.3348,0.037563
954.1985,0.038041
956.0622,0.038591
957.9258,0.039105
959.7895,0.039594
961.6532,0.040060
963.5168,0.040489
965.3805,0.040887
967.2442,0.041191
969.1078,0.041540
970.9715,0.042002
972.8352,0.042451
974.6988,0.042876
976.5625,0.043412
978.4262,0.044053
980.2899,0.044562
982.1535,0.044998
984.0172,0.045476
985.8809,0.045845
987.7445,0.046197
989.6082,0.046682
991.4719,0.047181
993.3355,0.047542
995.1992,0.047741
997.0629,0.047942
998.9265,0.048217
1000.7902,0.048510
1002.6539,0.048855
1004.5175,0.049113
1006.3812,0.049271
1008.2449,0.049424
1010.1086,0.049482
1011.9722,0.049523
1013.8359,0.049624
1015.6996,0.049741
1017.5632,0.049729
1019.4269,0.049672
1021.2906,0.049578
1023.1542,0.049305
1025.0179,0.049097
1026.8816,0.048970
1028.7452,0.048732
1030.6089,0.048419
1032.4726,0.048000
1034.3362,0.047544
1036.1999,0.047095
1038.0636,0.046509
1039.9273,0.045860
1041.7909,0.045399
1043.6546,0.044971
1045.5183,0.044412
1047.3819,0.043986
1049.2456,0.043577
1051.1093,0.043114
1052.9729,0.042679
1054.8366,0.042161
1056.7003,0.041621
1058.5639,0.041094
1060.4276,0.040398
1062.2913,0.039697
1064.1550,0.039125
1066.0186,0.038505
1067.8823,0.037902
1069.7460,0.037383
1071.6096,0.036922
1073.4733,0.036478
1075.3370,0.035948
1077.2006,0.035409
1079.0643,0.034876
1080.9280,0.034278
1082.7916,0.033731
1084.6553,0.033308
1086.5190,0.032801
1088.3826,0.032304
1090.2463,0.032031
1092.1100,0.031764
1093.9737,0.031364
1095.8373,0.030873
1097.7010,0.030446
1099.5647,0.030029
1101.4283,0.029521
1103.2920,0.029112
1105.1557,0.028790
1107.0193,0.028464
1108.8830,0.028095
1110.7467,0.027601
1112.6103,0.027126
1114.4740,0.026734
1116.3377,0.026271
1118.2014,0.025852
1120.0650,0.025533
1121.9287,0.025104
1123.7924,0.024647
1125.6560,0.024241
1127.5197,0.023886
1129.3834,0.023575
1131.2470,0.023193
1133.1107,0.022837
1134.9744,0.022565
1136.8380,0.022229
1138.7017,0.022000
1140.5654,0.021870
1142.4290,0.021676
1144.2927,0.021556
1146.1564,0.021419
1148.0201,0.021237
1149.8837,0.021095
1151.7474,0.020911
1153.6111,0.020652
1155.4747,0.020351
1157.3384,0.019985
1159.2021,0.019668
1161.0657,0.019332
1162.9294,0.018876
1164.7931,0.018441
1166.6567,0.017993
1168.5204,0.017410
1170.3841,0.016855
1172.2477,0.016536
1174.1114,0.016218
1175.9751,0.015660
1177.8388,0.015119
1179.7024,0.014815
1181.5661,0.014531
1183.4298,0.014142
1185.2934,0.013872
1187.1571,0.013779
1189.0208,0.013715
1190.8844,0.013604
1192.7481,0.013486
1194.6118,0.013443
1196.4754,0.013467
1198.3391,0.013587
1200.2028,0.013663
1202.0665,0.013617
1203.9301,0.013593
1205.7938,0.013616
1207.6575,0.013592
1209.5211,0.013613
1211.3848,0.013682
1213.2485,0.013815
1215.1121,0.013950
1216.9758,0.014015
1218.8395,0.014132
1220.7031,0.014209
1222.5668,0.014263
1224.4305,0.014370
1226.2941,0.014490
1228.1578,0.014549
1230.0215,0.014603
1231.8852,0.014694
1233.7488,0.014727
1235.6125,0.014715
1237.4762,0.014781
1239.3398,0.014768
1241.2035,0.014756
1243.0672,0.014728
1244.9308,0.014617
1246.7945,0.014632
1248.6582,0.014686
1250.5218,0.014579
1252.3855,0.014497
1254.2492,0.014447
1256.1129,0.014345
1257.9765,0.014325
1259.8402,0.014305
1261.7039,0.014191
1263.5675,0.014118
1265.4312,0.014118
1267.2949,0.014062
1269.1585,0.014012
1271.0222,0.013992
1272.8859,0.013976
1274.7495,0.013959
1276.6132,0.013998
1278.4769,0.014033
1280.3405,0.014099
1282.2042,0.014215
1284.0679,0.014231
1285.9316,0.014180
1287.7952,0.014272
1289.6589,0.014322
1291.5226,0.014289
1293.3862,0.014394
1295.2499,0.014544
1297.1136,0.014596
1298.9772,0.014643
1300.8409,0.014686
1302.7046,0.014758
1304.5682,0.014872
1306.4319,0.014921
1308.2956,0.014952
1310.1592,0.015114
1312.0229,0.015329
1313.8866,0.015368
1315.7503,0.015356
1317.6139,0.015359
1319.4776,0.015265
1321.3413,0.015183
1323.2049,0.015228
1325.0686,0.015229
1326.9323,0.015174
1328.7959,0.015178
1330.6596,0.015228
1332.5233,0.015281
1334.3869,0.015355
1336.2506,0.015486
1338.1143,0.015644
1339.9780,0.015617
1341.8416,0.015598
1343.7053,0.015669
1345.5690,0.015766
1347.4326,0.015824
1349.2963,0.015887
1351.1600,0.015887
1353.0236,0.015940
1354.8873,0.016213
1356.7510,0.016422
1358.6146,0.016480
1360.4783,0.016740
1362.3420,0.017022
1364.2056,0.017070
1366.0693,0.017098
1367.9330,0.017323
1369.7967,0.017498
1371.6603,0.017678
1373.5240,0.017959
1375.3877,0.018054
1377.2513,0.017968
1379.1150,0.017934
1380.9787,0.018065
1382.8423,0.018154
1384.7060,0.018342
1386.5697,0.018626
1388.4333,0.018694
1390.2970,0.018485
1392.1607,0.018600
1394.0244,0.018927
1395.8880,0.019122
1397.7517,0.019291
1399.6154,0.019405
1401.4790,0.019484
1403.3427,0.019525
1405.2064,0.019655
1407.0700,0.019657
1408.9337,0.019664
1410.7974,0.019677
1412.6610,0.019672
1414.5247,0.019523
1416.3884,0.019644
1418.2520,0.020003
1420.1157,0.019903
1421.9794,0.019307
1423.8431,0.018928
1425.7067,0.018861
1427.5704,0.018752
1429.4341,0.018700
1431.2977,0.018475
1433.1614,0.018217
1435.0251,0.018403
1436.8887,0.018558
1438.7524,0.017978
1440.6161,0.017405
1442.4797,0.017280
1444.3434,0.017167
1446.2071,0.017176
1448.0707,0.017083
1449.9344,0.016764
1451.7981,0.016439
1453.6618,0.016519
1455.5254,0.016845
1457.3891,0.016969
1459.2528,0.016008
1461.1164,0.015147
1462.9801,0.014945
1464.8438,0.014963
1466.7074,0.014658
1468.5711,0.014098
1470.4348,0.013995
1472.2984,0.014112
1474.1621,0.013819
1476.0258,0.013171
1477.8895,0.012787
1479.7531,0.012553
1481.6168,0.012400
1483.4805,0.012384
1485.3441,0.012484
1487.2078,0.012855
1489.0715,0.013280
1490.9351,0.013178
1492.7988,0.012950
1494.6625,0.013156
1496.5261,0.013710
1498.3898,0.014037
1500.2535,0.014015
1502.1171,0.014076
1503.9808,0.014680
1505.8445,0.015623
1507.7082,0.015847
1509.5718,0.015393
1511.4355,0.015489
1513.2992,0.016015
1515.1628,0.016593
1517.0265,0.017039
1518.8902,0.017332
1520.7538,0.017366
1522.6175,0.017246
1524.4812,0.017163
1526.3448,0.017367
1528.2085,0.017343
1530.0722,0.017363
1531.9359,0.017800
1533.7995,0.018015
1535.6632,0.017872
1537.5269,0.018161
1539.3905,0.019424
1541.2542,0.019472
1543.1179,0.018485
1544.9815,0.017929
1546.8452,0.017742
1548.7089,0.017678
1550.5725,0.017783
1552.4362,0.017553
1554.2999,0.017253
1556.1635,0.017632
1558.0272,0.018536
1559.8909,0.018454
1561.7546,0.016879
1563.6182,0.016259
1565.4819,0.016314
1567.3456,0.016634
1569.2092,0.016877
1571.0729,0.016792
1572.9366,0.016762
1574.8002,0.017189
1576.6639,0.017604
1578.5276,0.017435
1580.3912,0.017329
1582.2549,0.017575
1584.1186,0.017805
1585.9822,0.018003
1587.8459,0.018232
1589.7096,0.018518
1591.5733,0.018680
1593.4369,0.018820
1595.3006,0.019207
1597.1643,0.019438
1599.0279,0.019550
1600.8916,0.019721
1602.7553,0.019749
1604.6189,0.019773
1606.4826,0.019995
1608.3463,0.020280
1610.2099,0.020201
1612.0736,0.019891
1613.9373,0.020199
1615.8010,0.020677
1617.6646,0.020801
1619.5283,0.020507
1621.3920,0.020527
1623.2556,0.020952
1625.1193,0.021272
1626.9830,0.021312
1628.8466,0.021218
1630.7103,0.020969
1632.5740,0.021177
1634.4376,0.021940
1636.3013,0.022288
1638.1650,0.021490
1640.0286,0.020744
1641.8923,0.020601
1643.7560,0.020827
1645.6197,0.021317
1647.4833,0.021204
1649.3470,0.020657
1651.2107,0.020691
1653.0743,0.021547
1654.9380,0.020635
1656.8017,0.019107
1658.6653,0.018567
1660.5290,0.018412
1662.3927,0.018107
1664.2563,0.017539
1666.1200,0.017045
1667.9837,0.016833
1669.8474,0.016408
1671.7110,0.015683
1673.5747,0.015031
1675.4384,0.014562
1677.3020,0.013959
1679.1657,0.013280
1681.0294,0.013211
1682.8930,0.013391
1684.7567,0.013375
1686.6204,0.011994
1688.4840,0.010869
1690.3477,0.010395
1692.2114,0.010082
1694.0750,0.009921
1695.9387,0.009793
1697.8024,0.009566
1699.6661,0.008860
1701.5297,0.008611
1703.3934,0.007895
1705.2571,0.007442
1707.1207,0.007173
1708.9844,0.006773
1710.8481,0.006561
1712.7117,0.006530
1714.5754,0.006750
1716.4391,0.006637
1718.3027,0.006406
1720.1664,0.006300
1722.0301,0.005814
1723.8937,0.005607
1725.7574,0.005520
1727.6211,0.005437
1729.4848,0.005425
1731.3484,0.005481
1733.2121,0.005363
1735.0758,0.005563
1736.9394,0.005153
1738.8031,0.004724
1740.6668,0.004795
1742.5304,0.004695
1744.3941,0.004654
1746.2578,0.004614
1748.1214,0.004674
1749.9851,0.004554
1751.8488,0.004360
1753.7125,0.004286
1755.5761,0.004000
1757.4398,0.004065
1759.3035,0.004127
1761.1671,0.004050
1763.0308,0.004111
1764.8945,0.004000
1766.7581,0.003836
1768.6218,0.003940
1770.4855,0.003896
1772.3491,0.003850
1774.2128,0.004032
1776.0765,0.003888
1777.9401,0.003963
1779.8038,0.003969
1781.6675,0.003831
1783.5312,0.003721
1785.3948,0.003819
1787.2585,0.003847
1789.1222,0.004055
1790.9858,0.004462
1792.8495,0.004674
1794.7132,0.004244
1796.5768,0.003746
1798.4405,0.003615
1800.3042,0.003592
1802.1678,0.003722
1804.0315,0.003680
1805.8952,0.003583
1807.7589,0.003606
1809.6225,0.003894
1811.4862,0.004016
1813.3499,0.003727
1815.2135,0.003503
1817.0772,0.003529
1818.9409,0.003844
1820.8045,0.004082
1822.6682,0.004011
1824.5319,0.003909
1826.3955,0.003874
1828.2592,0.003706
1830.1229,0.003833
1831.9865,0.003979
1833.8502,0.003923
1835.7139,0.003901
1837.5776,0.004001
1839.4412,0.004050
1841.3049,0.003887
1843.1686,0.003874
1845.0322,0.004219
1846.8959,0.004207
1848.7596,0.003970
1850.6232,0.003861
1852.4869,0.003911
1854.3506,0.004340
1856.2142,0.004398
1858.0779,0.004096
1859.9416,0.003944
1861.8052,0.004037
1863.6689,0.003992
1865.5326,0.003853
1867.3963,0.003870
1869.2599,0.004156
1871.1236,0.004211
1872.9873,0.004130
1874.8509,0.004146
1876.7146,0.004274
1878.5783,0.004302
1880.4419,0.004292
1882.3056,0.004395
1884.1693,0.004358
1886.0329,0.004069
1887.8966,0.004263
1889.7603,0.004249
1891.6240,0.004243
1893.4876,0.004455
1895.3513,0.004517
1897.2150,0.004424
1899.0786,0.004527
1900.9423,0.004490
1902.8060,0.004239
1904.6696,0.004297
1906.5333,0.004722
1908.3970,0.004732
1910.2606,0.004198
1912.1243,0.004146
1913.9880,0.004343
1915.8516,0.004429
1917.7153,0.004517
1919.5790,0.004366
1921.4427,0.004040
1923.3063,0.004326
1925.1700,0.004848
1927.0337,0.004543
1928.8973,0.003899
1930.7610,0.004105
1932.6247,0.004655
1934.4883,0.005050
1936.3520,0.004903
1938.2157,0.004535
1940.0793,0.004281
1941.9430,0.003999
1943.8067,0.004425
1945.6704,0.005130
1947.5340,0.005244
1949.3977,0.004729
1951.2614,0.004147
1953.1250,0.004001
1954.9887,0.004147
1956.8524,0.004716
1958.7160,0.004815
1960.5797,0.004799
1962.4434,0.004790
1964.3070,0.004947
1966.1707,0.005146
1968.0344,0.004169
1969.8980,0.003852
1971.7617,0.004400
1973.6254,0.004702
1975.4891,0.004919
1977.3527,0.005658
1979.2164,0.006120
1981.0801,0.005779
1982.9437,0.005497
1984.8074,0.005372
1986.6711,0.005073
1988.5347,0.005108
1990.3984,0.005050
1992.2621,0.005482
1994.1257,0.005646
1995.9894,0.005547
1997.8531,0.005713
1999.7167,0.005168
2001.5804,0.004285
2003.4441,0.004369
2005.3078,0.004299
2007.1714,0.004067
2009.0351,0.004626
2010.8988,0.005036
2012.7624,0.004760
2014.6261,0.005165
2016.4898,0.005574
2018.3534,0.005548
2020.2171,0.006030
2022.0808,0.005718
2023.9444,0.005208
2025.8081,0.005143
2027.6718,0.005288
2029.5355,0.005548
2031.3991,0.004773
2033.2628,0.004508
2035.1265,0.005292
2036.9901,0.005555
2038.8538,0.005397
2040.7175,0.004917
2042.5811,0.005003
2044.4448,0.005187
2046.3085,0.005263
2048.1721,0.005547
2050.0358,0.006387
2051.8995,0.006111
2053.7631,0.005183
2055.6268,0.005394
2057.4905,0.005588
2059.3542,0.005466
2061.2178,0.005554
2063.0815,0.005606
2064.9452,0.005844
2066.8088,0.005438
2068.6725,0.004868
2070.5362,0.004896
2072.3998,0.005094
2074.2635,0.005264
2076.1272,0.005348
2077.9908,0.005416
2079.8545,0.005600
2081.7182,0.005193
2083.5819,0.005090
2085.4455,0.004968
2087.3092,0.005053
2089.1729,0.005478
2091.0365,0.005783
2092.9002,0.005823
2094.7639,0.005608
2096.6275,0.005476
2098.4912,0.005111
2100.3549,0.004917
2102.2185,0.005206
2104.0822,0.005538
2105.9459,0.005410
2107.8095,0.004902
2109.6732,0.004868
2111.5369,0.005230
2113.4006,0.005454
2115.2642,0.005672
2117.1279,0.005669
2118.9916,0.005273
2120.8552,0.004883
2122.7189,0.005207
2124.5826,0.005385
2126.4462,0.004734
2128.3099,0.004332
2130.1736,0.004258
2132.0372,0.004258
2133.9009,0.004644
2135.7646,0.004726
2137.6282,0.004909
2139.4919,0.005175
2141.3556,0.005511
2143.2193,0.005211
2145.0829,0.004583
2146.9466,0.004528
2148.8103,0.004828
2150.6739,0.005085
2152.5376,0.004970
2154.4013,0.004615
2156.2649,0.003694
2158.1286,0.003853
2159.9923,0.005327
2161.8559,0.005540
2163.7196,0.005808
2165.5833,0.006108
2167.4470,0.006127
2169.3106,0.005739
2171.1743,0.004992
2173.0380,0.005261
2174.9016,0.005690
2176.7653,0.005505
2178.6290,0.005086
2180.4926,0.005297
2182.3563,0.005778
2184.2200,0.006434
2186.0836,0.006294
2187.9473,0.005674
2189.8110,0.005638
2191.6746,0.005937
2193.5383,0.006276
2195.4020,0.006724
2197.2657,0.006045
2199.1293,0.005248
2200.9930,0.005433
2202.8567,0.005763
2204.7203,0.006002
2206.5840,0.005932
2208.4477,0.005898
2210.3113,0.006102
2212.1750,0.006001
2214.0387,0.005676
2215.9023,0.005256
2217.7660,0.005387
2219.6297,0.005770
2221.4934,0.005577
2223.3570,0.005472
2225.2207,0.006126
2227.0844,0.006148
2228.9480,0.005714
2230.8117,0.005822
2232.6754,0.005950
2234.5390,0.005882
2236.4027,0.005787
2238.2664,0.005952
2240.1300,0.005793
2241.9937,0.005640
2243.8574,0.005519
2245.7210,0.005310
2247.5847,0.005268
2249.4484,0.005222
2251.3121,0.005268
2253.1757,0.005919
2255.0394,0.006491
2256.9031,0.006402
2258.7667,0.006032
2260.6304,0.006031
2262.4941,0.005924
2264.3577,0.005944
2266.2214,0.005763
2268.0851,0.005539
2269.9487,0.005620
2271.8124,0.005446
2273.6761,0.005633
2275.5397,0.006311
2277.4034,0.006512
2279.2671,0.006397
2281.1308,0.006126
2282.9944,0.006182
2284.8581,0.006524
2286.7218,0.006427
2288.5854,0.006144
2290.4491,0.005890
2292.3128,0.005729
2294.1764,0.005835
2296.0401,0.005942
2297.9038,0.006142
2299.7674,0.006408
2301.6311,0.006368
2303.4948,0.006026
2305.3585,0.006063
2307.2221,0.006090
2309.0858,0.005705
2310.9495,0.005627
2312.8131,0.005762
2314.6768,0.005995
2316.5405,0.005828
2318.4041,0.005599
2320.2678,0.005856
2322.1315,0.006260
2323.9951,0.006493
2325.8588,0.006256
2327.7225,0.005853
2329.5861,0.005420
2331.4498,0.005423
2333.3135,0.005584
2335.1772,0.005403
2337.0408,0.005545
2338.9045,0.005783
2340.7682,0.005763
2342.6318,0.005789
2344.4955,0.005810
2346.3592,0.005486
2348.2228,0.004905
2350.0865,0.004506
2351.9502,0.004955
2353.8138,0.005806
2355.6775,0.006032
2357.5412,0.006014
2359.4049,0.006206
2361.2685,0.006020
2363.1322,0.005720
2364.9959,0.005855
2366.8595,0.005894
2368.7232,0.005413
2370.5869,0.005206
2372.4505,0.005229
2374.3142,0.005148
2376.1779,0.005147
2378.0415,0.005151
2379.9052,0.005132
2381.7689,0.005228
2383.6325,0.005418
2385.4962,0.005342
2387.3599,0.005073
2389.2236,0.005270
2391.0872,0.005418
2392.9509,0.005282
2394.8146,0.005099
2396.6782,0.004995
2398.5419,0.005369
2400.4056,0.005737
2402.2692,0.005620
2404.1329,0.005319
2405.9966,0.005308
2407.8602,0.005675
2409.7239,0.005884
2411.5876,0.005723
2413.4512,0.005358
2415.3149,0.005300
2417.1786,0.005590
2419.0423,0.005749
2420.9059,0.005615
2422.7696,0.005615
2424.6333,0.005840
2426.4969,0.005983
2428.3606,0.005706
2430.2243,0.005475
2432.0879,0.005554
2433.9516,0.005727
2435.8153,0.005883
2437.6789,0.006128
2439.5426,0.005844
2441.4063,0.005534
2443.2700,0.005978
2445.1336,0.005996
2446.9973,0.005978
2448.8610,0.006010
2450.7246,0.005544
2452.5883,0.005687
2454.4520,0.005815
2456.3156,0.005540
2458.1793,0.005865
2460.0430,0.006134
2461.9066,0.006078
2463.7703,0.005807
2465.6340,0.005699
2467.4976,0.005753
2469.3613,0.005625
2471.2250,0.005694
2473.0887,0.005879
2474.9523,0.005818
2476.8160,0.005772
2478.6797,0.006022
2480.5433,0.005964
2482.4070,0.005744
2484.2707,0.005655
2486.1343,0.005962
2487.9980,0.006164
2489.8617,0.005902
2491.7253,0.005647
2493.5890,0.005581
2495.4527,0.005890
2497.3164,0.006192
2499.1800,0.006186
2501.0437,0.005969
2502.9074,0.006057
2504.7710,0.006289
2506.6347,0.006092
2508.4984,0.006020
2510.3620,0.006282
2512.2257,0.006536
2514.0894,0.006334
2515.9530,0.006175
2517.8167,0.006297
2519.6804,0.006171
2521.5440,0.005729
2523.4077,0.005646
2525.2714,0.006043
2527.1351,0.005868
2528.9987,0.005628
2530.8624,0.006088
2532.7261,0.006436
2534.5897,0.006382
2536.4534,0.006337
2538.3171,0.006364
2540.1807,0.006117
2542.0444,0.005870
2543.9081,0.005981
2545.7717,0.006104
2547.6354,0.006098
2549.4991,0.006153
2551.3627,0.006142
2553.2264,0.006221
2555.0901,0.006443
2556.9538,0.006599
2558.8174,0.006381
2560.6811,0.006011
2562.5448,0.006035
2564.4084,0.006152
2566.2721,0.006135
2568.1358,0.006274
2569.9994,0.006425
2571.8631,0.006366
2573.7268,0.006388
2575.5904,0.006521
2577.4541,0.006574
2579.3178,0.006286
2581.1815,0.006119
2583.0451,0.006359
2584.9088,0.006561
2586.7725,0.006517
2588.6361,0.006609
2590.4998,0.006618
2592.3635,0.006305
2594.2271,0.006107
2596.0908,0.005978
2597.9545,0.005941
2599.8181,0.006520
2601.6818,0.006830
2603.5455,0.006381
2605.4091,0.006208
2607.2728,0.006175
2609.1365,0.006039
2611.0002,0.006293
2612.8638,0.006481
2614.7275,0.006366
2616.5912,0.006538
2618.4548,0.006837
2620.3185,0.006648
2622.1822,0.006611
2624.0458,0.006787
2625.9095,0.006756
2627.7732,0.006581
2629.6368,0.006679
2631.5005,0.006900
2633.3642,0.006853
2635.2279,0.006511
2637.0915,0.006289
2638.9552,0.006581
2640.8189,0.006884
2642.6825,0.006809
2644.5462,0.006472
2646.4099,0.006289
2648.2735,0.006537
2650.1372,0.006663
2652.0009,0.006569
2653.8645,0.006319
2655.7282,0.006234
2657.5919,0.006555
2659.4555,0.006640
2661.3192,0.006561
2663.1829,0.006500
2665.0466,0.006434
2666.9102,0.006514
2668.7739,0.006585
2670.6376,0.006443
2672.5012,0.006339
2674.3649,0.006472
2676.2286,0.006530
2678.0922,0.006411
2679.9559,0.006348
2681.8196,0.006325
2683.6832,0.006426
2685.5469,0.006736
2687.4106,0.006747
2689.2742,0.006655
2691.1379,0.006594
2693.0016,0.006518
2694.8653,0.006497
2696.7289,0.006468
2698.5926,0.006519
2700.4563,0.006477
2702.3199,0.006393
2704.1836,0.006452
2706.0473,0.006454
2707.9109,0.006486
2709.7746,0.006729
2711.6383,0.006681
2713.5019,0.006412
2715.3656,0.006597
2717.2293,0.006693
2719.0930,0.006404
2720.9566,0.006367
2722.8203,0.006506
2724.6840,0.006499
2726.5476,0.006542
2728.4113,0.006588
2730.2750,0.006725
2732.1386,0.006814
2734.0023,0.006604
2735.8660,0.006418
2737.7296,0.006566
2739.5933,0.006810
2741.4570,0.006730
2743.3206,0.006624
2745.1843,0.006819
2747.0480,0.006884
2748.9117,0.006629
2750.7753,0.006627
2752.6390,0.006818
2754.5027,0.006743
2756.3663,0.006661
2758.2300,0.006704
2760.0937,0.006790
2761.9573,0.006948
2763.8210,0.006977
2765.6847,0.006653
2767.5483,0.006398
2769.4120,0.006433
2771.2757,0.006622
2773.1394,0.006783
2775.0030,0.006884
2776.8667,0.006885
2778.7304,0.006754
2780.5940,0.006739
2782.4577,0.006784
2784.3214,0.006871
2786.1850,0.006929
2788.0487,0.006966
2789.9124,0.007101
2791.7760,0.007145
2793.6397,0.007196
2795.5034,0.007178
2797.3670,0.006925
2799.2307,0.006735
2801.0944,0.006733
2802.9581,0.006907
2804.8217,0.006959
2806.6854,0.006817
2808.5491,0.006867
2810.4127,0.006866
2812.2764,0.006952
2814.1401,0.007261
2816.0037,0.007402
2817.8674,0.007135
2819.7311,0.006784
2821.5947,0.006947
2823.4584,0.007240
2825.3221,0.007218
2827.1857,0.007166
2829.0494,0.007005
2830.9131,0.007104
2832.7768,0.007421
2834.6404,0.007465
2836.5041,0.007669
2838.3678,0.007750
2840.2314,0.007539
2842.0951,0.007626
2843.9588,0.007690
2845.8224,0.007949
2847.6861,0.008161
2849.5498,0.007968
2851.4134,0.007994
2853.2771,0.007981
2855.1408,0.007886
2857.0045,0.008045
2858.8681,0.007977
2860.7318,0.007747
2862.5955,0.007966
2864.4591,0.008308
2866.3228,0.008231
2868.1865,0.007934
2870.0501,0.007763
2871.9138,0.007926
2873.7775,0.008189
2875.6411,0.008130
2877.5048,0.008029
2879.3685,0.008231
2881.2321,0.008395
2883.0958,0.008212
2884.9595,0.008007
2886.8232,0.008104
2888.6868,0.008231
2890.5505,0.008164
2892.4142,0.008275
2894.2778,0.008457
2896.1415,0.008200
2898.0052,0.008255
2899.8688,0.008878
2901.7325,0.008790
2903.5962,0.008125
2905.4598,0.008007
2907.3235,0.008129
2909.1872,0.008491
2911.0509,0.008816
2912.9145,0.008382
2914.7782,0.008183
2916.6419,0.008599
2918.5055,0.008540
2920.3692,0.008353
2922.2329,0.008534
2924.0965,0.008837
2925.9602,0.008761
2927.8239,0.008559
2929.6875,0.008721
2931.5512,0.008636
2933.4149,0.008554
2935.2785,0.008539
2937.1422,0.008315
2939.0059,0.008078
2940.8696,0.008209
2942.7332,0.008372
2944.5969,0.007890
2946.4606,0.007512
2948.3242,0.007827
2950.1879,0.008037
2952.0516,0.008099
2953.9152,0.008255
2955.7789,0.007872
2957.6426,0.007575
2959.5062,0.007730
2961.3699,0.007754
2963.2336,0.007858
2965.0972,0.008114
2966.9609,0.008174
2968.8246,0.007708
2970.6883,0.007583
2972.5519,0.008006
2974.4156,0.007939
2976.2793,0.007823
2978.1429,0.007769
2980.0066,0.007324
2981.8703,0.007330
2983.7339,0.007540
2985.5976,0.007400
2987.4613,0.006909
2989.3249,0.006470
2991.1886,0.006820
2993.0523,0.007180
2994.9160,0.006960
2996.7796,0.006871
2998.6433,0.006887
3000.5070,0.007169
3002.3706,0.007470
3004.2343,0.007076
3006.0980,0.006696
3007.9616,0.007138
3009.8253,0.007212
3011.6890,0.006950
3013.5526,0.007281
3015.4163,0.007490
3017.2800,0.006943
3019.1436,0.006848
3021.0073,0.007402
3022.8710,0.007503
3024.7347,0.006730
3026.5983,0.006608
3028.4620,0.007208
3030.3257,0.007371
3032.1893,0.007525
3034.0530,0.007818
3035.9167,0.007901
3037.7803,0.007706
3039.6440,0.006966
3041.5077,0.006821
3043.3713,0.007253
3045.2350,0.007227
3047.0987,0.006949
3048.9624,0.007219
3050.8260,0.007597
3052.6897,0.007181
3054.5534,0.007262
3056.4170,0.007931
3058.2807,0.007622
3060.1444,0.007031
3062.0080,0.007075
3063.8717,0.007197
3065.7354,0.007184
3067.5990,0.007589
3069.4627,0.007920
3071.3264,0.007530
3073.1900,0.007051
3075.0537,0.006784
3076.9174,0.007141
3078.7811,0.007862
3080.6447,0.008232
3082.5084,0.008380
3084.3721,0.008397
3086.2357,0.008013
3088.0994,0.007389
3089.9631,0.007226
3091.8267,0.007598
3093.6904,0.007278
3095.5541,0.006823
3097.4177,0.007118
3099.2814,0.007746
3101.1451,0.007678
3103.0087,0.007135
3104.8724,0.007252
3106.7361,0.007640
3108.5998,0.007708
3110.4634,0.007366
3112.3271,0.007252
3114.1908,0.007769
3116.0544,0.008173
3117.9181,0.008333
3119.7818,0.008060
3121.6454,0.007848
3123.5091,0.008121
3125.3728,0.008782
3127.2364,0.008723
3129.1001,0.007892
3130.9638,0.007957
3132.8275,0.008193
3134.6911,0.007969
3136.5548,0.008451
3138.4185,0.008796
3140.2821,0.008271
3142.1458,0.007795
3144.0095,0.008208
3145.8731,0.008360
3147.7368,0.008495
3149.6005,0.008890
3151.4641,0.008824
3153.3278,0.008361
3155.1915,0.008334
3157.0551,0.009008
3158.9188,0.008984
3160.7825,0.008363
3162.6462,0.008797
3164.5098,0.009059
3166.3735,0.008460
3168.2372,0.008097
3170.1008,0.008769
3171.9645,0.009009
3173.8282,0.008433
3175.6918,0.008698
3177.5555,0.008853
3179.4192,0.008430
3181.2828,0.007933
3183.1465,0.008229
3185.0102,0.008851
3186.8739,0.008767
3188.7375,0.007940
3190.6012,0.007936
3192.4649,0.008720
3194.3285,0.008574
3196.1922,0.008485
3198.0559,0.008869
3199.9195,0.008562
3201.7832,0.008432
3203.6469,0.008485
3205.5105,0.008202
3207.3742,0.009033
3209.2379,0.009194
3211.1015,0.008823
3212.9652,0.008940
3214.8289,0.008959
3216.6926,0.008674
3218.5562,0.008801
3220.4199,0.009627
3222.2836,0.009442
3224.1472,0.008490
3226.0109,0.008495
3227.8746,0.008867
3229.7382,0.008124
3231.6019,0.007729
3233.4656,0.008276
3235.3292,0.008530
3237.1929,0.008650
3239.0566,0.009516
3240.9202,0.010052
3242.7839,0.009662
3244.6476,0.009194
3246.5113,0.009503
3248.3749,0.009623
3250.2386,0.009067
3252.1023,0.008848
3253.9659,0.008485
3255.8296,0.008704
3257.6933,0.008625
3259.5569,0.008506
3261.4206,0.009065
3263.2843,0.009502
3265.1479,0.009129
3267.0116,0.009331
3268.8753,0.009334
3270.7390,0.009385
3272.6026,0.009011
3274.4663,0.008899
3276.3300,0.009523
3278.1936,0.009980
3280.0573,0.009517
3281.9210,0.009070
3283.7846,0.008641
3285.6483,0.008641
3287.5120,0.008969
3289.3756,0.008970
3291.2393,0.008685
3293.1030,0.008583
3294.9666,0.009124
3296.8303,0.009758
3298.6940,0.009217
3300.5577,0.008340
3302.4213,0.007869
3304.2850,0.008174
3306.1487,0.008101
3308.0123,0.007922
3309.8760,0.008495
3311.7397,0.008820
3313.6033,0.008290
3315.4670,0.008888
3317.3307,0.009141
3319.1943,0.008400
3321.0580,0.007901
3322.9217,0.007883
3324.7854,0.008378
3326.6490,0.008755
3328.5127,0.008329
3330.3764,0.008327
3332.2400,0.008564
3334.1037,0.008012
3335.9674,0.007450
3337.8310,0.007718
3339.6947,0.007543
3341.5584,0.007282
3343.4220,0.007616
3345.2857,0.008024
3347.1494,0.008288
3349.0130,0.007228
3350.8767,0.006902
3352.7404,0.007634
3354.6041,0.007237
3356.4677,0.006460
3358.3314,0.006386
3360.1951,0.007303
3362.0587,0.008042
3363.9224,0.007535
3365.7861,0.007300
3367.6497,0.008080
3369.5134,0.008270
3371.3771,0.007265
3373.2407,0.006519
3375.1044,0.006567
3376.9681,0.006343
3378.8317,0.006941
3380.6954,0.007031
3382.5591,0.006872
3384.4228,0.008026
3386.2864,0.008796
3388.1501,0.008422
3390.0138,0.006937
3391.8774,0.005482
3393.7411,0.005568
3395.6048,0.006106
3397.4684,0.006290
3399.3321,0.005604
3401.1958,0.005969
3403.0594,0.006435
3404.9231,0.005837
3406.7868,0.005737
3408.6505,0.005741
3410.5141,0.006838
3412.3778,0.007487
3414.2415,0.005543
3416.1051,0.004337
3417.9688,0.005538
3419.8325,0.006756
3421.6961,0.005871
3423.5598,0.005313
3425.4235,0.005596
3427.2871,0.005644
3429.1508,0.005048
3431.0145,0.005779
3432.8781,0.006711
3434.7418,0.005937
3436.6055,0.004579
3438.4692,0.005478
3440.3328,0.007404
3442.1965,0.007791
3444.0602,0.007016
3445.9238,0.005062
3447.7875,0.004735
3449.6512,0.005468
3451.5148,0.005896
3453.3785,0.005856
3455.2422,0.005567
3457.1058,0.004587
3458.9695,0.004144
3460.8332,0.004273
3462.6969,0.003397
3464.5605,0.004230
3466.4242,0.005504
3468.2879,0.005579
3470.1515,0.003902
3472.0152,0.004374
3473.8789,0.005413
3475.7425,0.005023
3477.6062,0.004294
3479.4699,0.004748
3481.3335,0.005562
3483.1972,0.005012
3485.0609,0.003040
3486.9245,0.002659
3488.7882,0.003573
3490.6519,0.004101
3492.5156,0.004993
3494.3792,0.005239
3496.2429,0.003646
3498.1066,0.004292
3499.9702,0.005526
3501.8339,0.004668
3503.6976,0.004364
3505.5612,0.003602
3507.4249,0.003640
3509.2886,0.004799
3511.1522,0.004710
3513.0159,0.004726
3514.8796,0.004194
3516.7432,0.003853
3518.6069,0.004374
3520.4706,0.004330
3522.3343,0.002484
3524.1979,0.002461
3526.0616,0.004342
3527.9253,0.003885
3529.7889,0.003024
3531.6526,0.003506
3533.5163,0.003449
3535.3799,0.004218
3537.2436,0.002990
3539.1073,0.001080
3540.9709,0.001846
3542.8346,0.003691
3544.6983,0.002713
3546.5620,0.002358
3548.4256,0.004610
3550.2893,0.004674
3552.1530,0.002954
3554.0166,0.003026
3555.8803,0.002656
3557.7440,0.001917
3559.6076,0.001877
3561.4713,0.001242
3563.3350,0.001533
3565.1986,0.002579
3567.0623,0.002726
3568.9260,0.003440
3570.7896,0.002698
3572.6533,0.000737
3574.5170,0.001007
3576.3807,0.001703
3578.2443,0.002317
3580.1080,0.002474
3581.9717,0.002444
3583.8353,0.001929
3585.6990,0.000283
3587.5627,0.000390
3589.4263,0.002695
3591.2900,0.002592
3593.1537,0.000231
3595.0173,-0.000907
3596.8810,0.000559
3598.7447,0.002041
3600.6084,0.002139
3602.4720,0.001820
3604.3357,0.001374
3606.1994,0.001384
3608.0630,0.001563
3609.9267,0.001058
3611.7904,0.001097
3613.6540,0.001289
3615.5177,0.000504
3617.3814,0.000473
3619.2450,0.001047
3621.1087,0.001780
3622.9724,0.001778
3624.8360,0.001375
3626.6997,0.000478
3628.5634,0.000418
3630.4271,0.001796
3632.2907,0.001841
3634.1544,0.000500
3636.0181,0.001006
3637.8817,0.001170
3639.7454,0.000172
3641.6091,-0.000737
3643.4727,-0.000869
3645.3364,-0.000229
3647.2001,0.000746
3649.0637,0.001477
3650.9274,0.000916
3652.7911,0.000830
3654.6547,0.000386
3656.5184,-0.000254
3658.3821,-0.000209
3660.2458,-0.000029
3662.1094,-0.000428
3663.9731,-0.000499
3665.8368,-0.000700
3667.7004,-0.001113
3669.5641,-0.001054
3671.4278,0.000211
3673.2914,0.000749
3675.1551,-0.000084
3677.0188,0.000580
3678.8824,0.000644
3680.7461,-0.000044
3682.6098,0.000133
3684.4735,-0.000488
3686.3371,-0.001196
3688.2008,-0.000536
3690.0645,0.000941
3691.9281,0.000692
3693.7918,-0.000135
3695.6555,-0.000127
3697.5191,-0.000380
3699.3828,-0.000653
3701.2465,-0.000853
3703.1101,-0.000923
3704.9738,-0.001048
3706.8375,-0.001255
3708.7011,-0.000769
3710.5648,0.000320
3712.4285,0.000533
3714.2922,0.000025
3716.1558,-0.000625
3718.0195,-0.001120
3719.8832,-0.000764
3721.7468,-0.000765
3723.6105,-0.000940
3725.4742,-0.000941
3727.3378,-0.000806
3729.2015,-0.000576
3731.0652,-0.000589
3732.9288,-0.000481
3734.7925,-0.000419
3736.6562,-0.000806
3738.5199,-0.000646
3740.3835,-0.000572
3742.2472,-0.000991
3744.1109,-0.000857
3745.9745,-0.000320
3747.8382,-0.000139
3749.7019,-0.000411
3751.5655,-0.001137
3753.4292,-0.001043
3755.2929,0.000347
3757.1565,-0.000384
3759.0202,-0.001001
3760.8839,-0.000892
3762.7475,-0.000436
3764.6112,-0.000554
3766.4749,-0.000938
3768.3386,-0.000789
3770.2022,-0.001009
3772.0659,-0.000664
3773.9296,0.000026
3775.7932,-0.000328
3777.6569,-0.000909
3779.5206,-0.000455
3781.3842,-0.000907
3783.2479,-0.001218
3785.1116,-0.000552
3786.9752,0.000159
3788.8389,-0.000343
3790.7026,-0.001443
3792.5662,-0.001342
3794.4299,-0.001046
3796.2936,-0.000850
3798.1573,-0.000062
3800.0209,-0.000395
3801.8846,-0.000250
3803.7483,0.000324
3805.6119,-0.000317
3807.4756,-0.000764
3809.3393,-0.000789
3811.2029,-0.001417
3813.0666,-0.001642
3814.9303,-0.000995
3816.7939,-0.000738
3818.6576,-0.000784
3820.5213,-0.000650
3822.3850,-0.000466
3824.2486,-0.000009
3826.1123,-0.000350
3827.9760,-0.000807
3829.8396,-0.000624
3831.7033,-0.001323
3833.5670,-0.001248
3835.4306,-0.001020
3837.2943,-0.000699
3839.1580,0.000275
3841.0216,-0.000299
3842.8853,-0.000924
3844.7490,-0.000852
3846.6126,-0.001102
3848.4763,-0.001273
3850.3400,-0.001414
3852.2037,-0.000985
3854.0673,0.000548
3855.9310,0.000951
3857.7947,0.000187
3859.6583,-0.000401
3861.5220,-0.000595
3863.3857,-0.000731
3865.2493,-0.000871
3867.1130,-0.000384
3868.9767,0.000216
3870.8403,0.000348
3872.7040,0.000158
3874.5677,-0.000367
3876.4314,-0.000643
3878.2950,-0.000930
3880.1587,-0.000691
3882.0224,-0.000304
3883.8860,-0.000313
3885.7497,-0.000364
3887.6134,-0.000651
3889.4770,-0.000658
3891.3407,-0.000035
3893.2044,0.000436
3895.0680,-0.000686
3896.9317,-0.001204
3898.7954,-0.000892
3900.6590,-0.001104
3902.5227,-0.000505
3904.3864,0.000376
3906.2501,0.000094
3908.1137,-0.000645
3909.9774,-0.000981
3911.8411,-0.001152
3913.7047,-0.000940
3915.5684,-0.000445
3917.4321,-0.000260
3919.2957,0.000538
3921.1594,0.000398
3923.0231,-0.000252
3924.8867,-0.000367
3926.7504,-0.000869
3928.6141,-0.000344
3930.4777,-0.000322
3932.3414,-0.000471
3934.2051,-0.000460
3936.0688,-0.000400
3937.9324,-0.001390
3939.7961,-0.001448
3941.6598,-0.000533
3943.5234,-0.001164
3945.3871,-0.000937
3947.2508,0.000207
3949.1144,0.000501
3950.9781,0.000098
3952.8418,-0.000523
3954.7054,-0.001013
3956.5691,-0.000909
3958.4328,-0.000956
3960.2965,-0.000867
3962.1601,-0.000730
3964.0238,-0.000244
3965.8875,-0.000447
3967.7511,-0.000903
3969.6148,-0.000355
3971.4785,-0.000502
3973.3421,-0.000789
3975.2058,-0.000768
3977.0695,-0.000742
3978.9331,-0.000719
3980.7968,-0.000960
3982.6605,-0.000759
3984.5241,-0.000323
3986.3878,-0.000193
3988.2515,-0.000699
3990.1152,-0.001166
3991.9788,-0.000943
3993.8425,-0.000304
3995.7062,-0.000486
3997.5698,-0.001003
3999.4335,-0.000556
4001.2972,-0.000922
4003.1608,-0.001069
4005.0245,-0.000872
4006.8882,-0.000833
4008.7518,-0.000737
4010.6155,-0.000460
4012.4792,-0.000619
4014.3429,-0.001388
4016.2065,-0.001475
4018.0702,-0.000919
4019.9339,-0.001098
4021.7975,-0.001877
4023.6612,-0.001729
4025.5249,-0.001142
4027.3885,-0.001299
4029.2522,-0.001235
4031.1159,-0.000567
4032.9795,-0.000002
4034.8432,-0.000399
4036.7069,-0.000721
4038.5705,-0.000752
4040.4342,-0.001090
4042.2979,-0.001473
4044.1616,-0.001998
4046.0252,-0.002285
4047.8889,-0.001363
4049.7526,-0.000424
4051.6162,-0.000550
4053.4799,-0.001087
4055.3436,-0.000736
4057.2072,-0.000747
4059.0709,-0.001292
4060.9346,-0.001388
4062.7982,-0.001337
4064.6619,-0.000988
4066.5256,-0.000838
4068.3892,-0.000825
4070.2529,-0.000841
4072.1166,-0.001125
4073.9803,-0.001101
4075.8439,-0.001158
4077.7076,-0.001227
4079.5713,-0.001310
4081.4349,-0.001231
4083.2986,-0.000776
4085.1623,-0.000870
4087.0259,-0.001549
4088.8896,-0.001736
4090.7533,-0.001326
4092.6169,-0.000613
4094.4806,0.000069
4096.3443,-0.000304
4098.2080,-0.000359
4100.0716,-0.000349
4101.9353,-0.000557
4103.7990,-0.001168
4105.6626,-0.002094
4107.5263,-0.001455
4109.3900,-0.000613
4111.2536,-0.001479
4113.1173,-0.001880
4114.9810,-0.001114
4116.8446,-0.000796
4118.7083,-0.000978
4120.5720,-0.001286
4122.4356,-0.001612
4124.2993,-0.001866
4126.1630,-0.001625
4128.0267,-0.001073
4129.8903,-0.001132
4131.7540,-0.000822
4133.6177,-0.000470
4135.4813,-0.000690
4137.3450,-0.001217
4139.2087,-0.001602
4141.0723,-0.001131
4142.9360,-0.000351
4144.7997,-0.000684
4146.6633,-0.001875
4148.5270,-0.002098
4150.3907,-0.002073
4152.2544,-0.001808
4154.1180,-0.001509
4155.9817,-0.001401
4157.8454,-0.000483
4159.7090,0.000101
4161.5727,-0.001025
4163.4364,-0.001662
4165.3000,-0.001161
4167.1637,-0.000353
4169.0274,0.000515
4170.8910,-0.000276
4172.7547,-0.001425
4174.6184,-0.001968
4176.4820,-0.001242
4178.3457,-0.000516
4180.2094,-0.000834
4182.0731,-0.000995
4183.9367,-0.001552
4185.8004,-0.001403
4187.6641,-0.000685
4189.5277,-0.001017
4191.3914,-0.001080
4193.2551,-0.001010
4195.1187,-0.001618
4196.9824,-0.001813
4198.8461,-0.000723
4200.7097,0.000042
4202.5734,-0.000266
4204.4371,-0.001526
4206.3007,-0.001876
4208.1644,-0.001248
4210.0281,-0.000653
4211.8918,-0.001057
4213.7554,-0.002002
4215.6191,-0.001596
4217.4828,-0.001107
4219.3464,-0.000852
4221.2101,-0.000128
4223.0738,-0.000422
4224.9374,-0.001276
4226.8011,-0.001520
4228.6648,-0.000733
4230.5284,-0.000348
4232.3921,-0.000947
4234.2558,-0.001720
4236.1195,-0.001885
4237.9831,-0.001777
4239.8468,-0.001505
4241.7105,-0.001215
4243.5741,-0.001190
4245.4378,-0.000791
4247.3015,-0.000316
4249.1651,-0.000804
4251.0288,-0.001104
4252.8925,-0.000577
4254.7561,-0.000291
4256.6198,-0.000810
4258.4835,-0.001475
4260.3471,-0.001167
4262.2108,-0.000708
4264.0745,-0.001304
4265.9382,-0.002099
4267.8018,-0.001628
4269.6655,-0.000717
4271.5292,-0.001252
4273.3928,-0.001048
4275.2565,-0.000696
4277.1202,-0.001193
4278.9838,-0.001459
4280.8475,-0.001412
4282.7112,-0.001047
4284.5748,-0.000625
4286.4385,-0.001002
4288.3022,-0.002024
4290.1659,-0.001651
4292.0295,-0.000797
4293.8932,-0.000352
4295.7569,0.000160
4297.6205,0.000201
4299.4842,-0.000142
4301.3479,-0.000482
4303.2115,-0.000647
4305.0752,-0.000340
4306.9389,-0.000318
4308.8025,-0.000196
4310.6662,-0.000123
4312.5299,-0.000696
4314.3935,-0.001443
4316.2572,-0.000884
4318.1209,0.000207
4319.9846,0.000009
4321.8482,-0.001483
4323.7119,-0.001628
4325.5756,-0.001221
4327.4392,-0.001840
4329.3029,-0.001869
4331.1666,-0.001288
4333.0302,-0.000361
4334.8939,-0.000136
4336.7576,-0.000794
4338.6212,-0.001158
4340.4849,-0.000887
4342.3486,-0.000396
4344.2122,-0.000048
4346.0759,-0.000200
4347.9396,-0.001032
4349.8033,-0.001217
4351.6669,-0.000700
4353.5306,-0.000980
4355.3943,-0.000669
4357.2579,-0.000402
4359.1216,-0.001087
4360.9853,-0.000777
4362.8489,-0.000887
4364.7126,-0.001526
4366.5763,-0.000931
4368.4399,-0.000366
4370.3036,-0.000356
4372.1673,-0.000878
4374.0310,-0.001425
4375.8946,-0.000813
4377.7583,-0.000217
4379.6220,0.000163
4381.4856,0.000336
4383.3493,-0.000407
4385.2130,-0.000861
4387.0766,-0.000915
4388.9403,-0.000734
4390.8040,-0.000402
4392.6676,-0.000675
4394.5313,-0.001557
4396.3950,-0.002120
4398.2586,-0.001205
4400.1223,-0.000447
4401.9860,-0.000739
4403.8497,-0.000654
4405.7133,-0.000199
4407.5770,-0.000434
4409.4407,-0.001066
4411.3043,-0.000846
4413.1680,0.000199
4415.0317,0.000575
4416.8953,0.000003
4418.7590,-0.000595
4420.6227,-0.001090
4422.4863,-0.001097
4424.3500,-0.001459
4426.2137,-0.001482
4428.0774,-0.000664
4429.9410,0.000136
4431.8047,-0.000229
4433.6684,-0.001465
4435.5320,-0.001284
4437.3957,-0.000345
4439.2594,-0.000346
4441.1230,0.000098
4442.9867,0.000354
4444.8504,-0.001108
4446.7140,-0.002120
4448.5777,-0.001525
4450.4414,-0.000610
4452.3050,-0.000209
4454.1687,-0.000316
4456.0324,0.000462
4457.8961,0.000368
4459.7597,-0.000950
4461.6234,-0.000859
4463.4871,-0.000770
4465.3507,-0.001211
4467.2144,-0.000848
4469.0781,-0.000797
4470.9417,-0.000552
4472.8054,-0.000251
4474.6691,-0.001085
4476.5327,-0.001642
4478.3964,-0.000828
4480.2601,-0.000200
4482.1237,-0.000849
4483.9874,-0.001597
4485.8511,-0.002047
4487.7148,-0.001545
4489.5784,0.000005
4491.4421,0.000481
4493.3058,-0.000047
4495.1694,-0.000133
4497.0331,-0.000250
4498.8968,-0.000652
4500.7604,-0.001125
