Wavenumber,Intensity
600.1014,0.059534
601.9651,0.064236
603.8287,0.069242
605.6924,0.063276
607.5561,0.055715
609.4197,0.058044
611.2834,0.059157
613.1471,0.058023
615.0107,0.061985
616.8744,0.054694
618.7381,0.055191
620.6017,0.057985
622.4654,0.054536
624.3291,0.052068
626.1928,0.053410
628.0564,0.057063
629.9201,0.059159
631.7838,0.058574
633.6474,0.055873
635.5111,0.054020
637.3748,0.053324
639.2384,0.053672
641.1021,0.055520
642.9658,0.055210
644.8294,0.053882
646.6931,0.052114
648.5568,0.051000
650.4205,0.050032
652.2841,0.051082
654.1478,0.051455
656.0115,0.050240
657.8751,0.050637
659.7388,0.051115
661.6025,0.051100
663.4661,0.050614
665.3298,0.051495
667.1935,0.053167
669.0571,0.051769
670.9208,0.050503
672.7845,0.049801
674.6481,0.049455
676.5118,0.048692
678.3755,0.047540
680.2392,0.047754
682.1028,0.047753
683.9665,0.047449
685.8302,0.046579
687.6938,0.046352
689.5575,0.046621
691.4212,0.047095
693.2848,0.047628
695.1485,0.047765
697.0122,0.046841
698.8758,0.045861
700.7395,0.045944
702.6032,0.046491
704.4669,0.046511
706.3305,0.046731
708.1942,0.047918
710.0579,0.049519
711.9215,0.050905
713.7852,0.050024
715.6489,0.047130
717.5125,0.044507
719.3762,0.042902
721.2399,0.042140
723.1035,0.041928
724.9672,0.041238
726.8309,0.040582
728.6945,0.040291
730.5582,0.040075
732.4219,0.039649
734.2856,0.039589
736.1492,0.039997
738.0129,0.040078
739.8766,0.040129
741.7402,0.039656
743.6039,0.039581
745.4676,0.039576
747.3312,0.039097
749.1949,0.039067
751.0586,0.039344
752.9222,0.039402
754.7859,0.039366
756.6496,0.039365
758.5132,0.039674
760.3769,0.039455
762.2406,0.038741
764.1043,0.038433
765.9679,0.038446
767.8316,0.038367
769.6953,0.038288
771.5589,0.037954
773.4226,0.037835
775.2863,0.037995
777.1499,0.037965
779.0136,0.037719
780.8773,0.037569
782.7409,0.037480
784.6046,0.037043
786.4683,0.036594
788.3320,0.036509
790.1956,0.036437
792.0593,0.036222
793.9230,0.035870
795.7866,0.035609
797.6503,0.035510
799.5140,0.035366
801.3776,0.034900
803.2413,0.034265
805.1050,0.033979
806.9686,0.034001
808.8323,0.033866
810.6960,0.033319
812.5596,0.032960
814.4233,0.033064
816.2870,0.033082
818.1507,0.033005
820.0143,0.033115
821.8780,0.033042
823.7417,0.032988
825.6053,0.033043
827.4690,0.033137
829.3327,0.033413
831.1963,0.033674
833.0600,0.034005
834.9237,0.034386
836.7873,0.034658
838.6510,0.034985
840.5147,0.035719
842.3784,0.036419
844.2420,0.037058
846.1057,0.037973
847.9694,0.038511
849.8330,0.038531
851.6967,0.038882
853.5604,0.039585
855.4240,0.040299
857.2877,0.041331
859.1514,0.042518
861.0150,0.043698
862.8787,0.045097
864.7424,0.046856
866.6060,0.048851
868.4697,0.051395
870.3334,0.054332
872.1971,0.056485
874.0607,0.056982
875.9244,0.055836
877.7881,0.053275
879.6517,0.049909
881.5154,0.046778
883.3791,0.044085
885.2427,0.041267
887.1064,0.038745
888.9701,0.037640
890.8337,0.037633
892.6974,0.037987
894.5611,0.038310
896.4247,0.038677
898.2884,0.039102
900.1521,0.039427
902.0158,0.039766
903.8794,0.040194
905.7431,0.040737
907.6068,0.041291
909.4704,0.041844
911.3341,0.042304
913.1978,0.042550
915.0614,0.042922
916.9251,0.043493
918.7888,0.043940
920.6524,0.044293
922.5161,0.044563
924.3798,0.044772
926.2435,0.045090
928.1071,0.045402
929.9708,0.045827
931.8345,0.046243
933.6981,0.046459
935.5618,0.046904
937.4255,0.047519
939.2891,0.048050
941.1528,0.048526
943.0165,0.049091
944.8801,0.049591
946.7438,0.050143
948.6075,0.050901
950.4711,0.051654
952.3348,0.052262
954.1985,0.052931
956.0622,0.053783
957.9258,0.054626
959.7895,0.055457
961.6532,0.056438
963.5168,0.057455
965.3805,0.058367
967.2442,0.059240
969.1078,0.060047
970.9715,0.060949
972.8352,0.061989
974.6988,0.062975
976.5625,0.063751
978.4262,0.064665
980.2899,0.065719
982.1535,0.066608
984.0172,0.067470
985.8809,0.068397
987.7445,0.069264
989.6082,0.070106
991.4719,0.070754
993.3355,0.071246
995.1992,0.071722
997.0629,0.072233
998.9265,0.072743
1000.7902,0.073122
1002.6539,0.073316
1004.5175,0.073519
1006.3812,0.073843
1008.2449,0.074100
1010.1086,0.074225
1011.9722,0.074315
1013.8359,0.074405
1015.6996,0.074485
1017.5632,0.074585
1019.4269,0.074571
1021.2906,0.074450
1023.1542,0.074215
1025.0179,0.073848
1026.8816,0.073400
1028.7452,0.072908
1030.6089,0.072456
1032.4726,0.071919
1034.3362,0.071174
1036.1999,0.070378
1038.0636,0.069660
1039.9273,0.068869
1041.7909,0.067933
1043.6546,0.066908
1045.5183,0.065908
1047.3819,0.064915
1049.2456,0.063867
1051.1093,0.062844
1052.9729,0.061859
1054.8366,0.060830
1056.7003,0.059910
1058.5639,0.059019
1060.4276,0.058123
1062.2913,0.057322
1064.1550,0.056695
1066.0186,0.056052
1067.8823,0.055417
1069.7460,0.055034
1071.6096,0.054751
1073.4733,0.054394
1075.3370,0.054124
1077.2006,0.053947
1079.0643,0.053605
1080.9280,0.053077
1082.7916,0.052469
1084.6553,0.051855
1086.5190,0.051287
1088.3826,0.050682
1090.2463,0.050091
1092.1100,0.049521
1093.9737,0.048945
1095.8373,0.048332
1097.7010,0.047819
1099.5647,0.047391
1101.4283,0.046805
1103.2920,0.046203
1105.1557,0.045727
1107.0193,0.045189
1108.8830,0.044634
1110.7467,0.044169
1112.6103,0.043795
1114.4740,0.043336
1116.3377,0.042836
1118.2014,0.042319
1120.0650,0.041772
1121.9287,0.041299
1123.7924,0.040893
1125.6560,0.040489
1127.5197,0.040041
1129.3834,0.039597
1131.2470,0.039181
1133.1107,0.038772
1134.9744,0.038431
1136.8380,0.038195
1138.7017,0.038050
1140.5654,0.037860
1142.4290,0.037628
1144.2927,0.037428
1146.1564,0.037217
1148.0201,0.036971
1149.8837,0.036608
1151.7474,0.036110
1153.6111,0.035621
1155.4747,0.035074
1157.3384,0.034416
1159.2021,0.033691
1161.0657,0.032957
1162.9294,0.032264
1164.7931,0.031557
1166.6567,0.030699
1168.5204,0.029740
1170.3841,0.028853
1172.2477,0.028048
1174.1114,0.027308
1175.9751,0.026598
1177.8388,0.025811
1179.7024,0.025064
1181.5661,0.024474
1183.4298,0.023978
1185.2934,0.023434
1187.1571,0.022924
1189.0208,0.022494
1190.8844,0.022157
1192.7481,0.021891
1194.6118,0.021635
1196.4754,0.021428
1198.3391,0.021217
1200.2028,0.020965
1202.0665,0.020694
1203.9301,0.020424
1205.7938,0.020237
1207.6575,0.020112
1209.5211,0.019851
1211.3848,0.019618
1213.2485,0.019543
1215.1121,0.019419
1216.9758,0.019298
1218.8395,0.019193
1220.7031,0.019048
1222.5668,0.018915
1224.4305,0.018954
1226.2941,0.018998
1228.1578,0.019003
1230.0215,0.018999
1231.8852,0.018938
1233.7488,0.018945
1235.6125,0.018935
1237.4762,0.018848
1239.3398,0.018766
1241.2035,0.018725
1243.0672,0.018683
1244.9308,0.018640
1246.7945,0.018627
1248.6582,0.018552
1250.5218,0.018416
1252.3855,0.018279
1254.2492,0.018236
1256.1129,0.018221
1257.9765,0.018124
1259.8402,0.018127
1261.7039,0.018148
1263.5675,0.018092
1265.4312,0.018063
1267.2949,0.018009
1269.1585,0.017957
1271.0222,0.017921
1272.8859,0.017887
1274.7495,0.017936
1276.6132,0.018032
1278.4769,0.018073
1280.3405,0.018104
1282.2042,0.018164
1284.0679,0.018255
1285.9316,0.018310
1287.7952,0.018345
1289.6589,0.018373
1291.5226,0.018489
1293.3862,0.018697
1295.2499,0.018847
1297.1136,0.018936
1298.9772,0.019095
1300.8409,0.019198
1302.7046,0.019275
1304.5682,0.019472
1306.4319,0.019672
1308.2956,0.019839
1310.1592,0.020022
1312.0229,0.020258
1313.8866,0.020496
1315.7503,0.020673
1317.6139,0.020780
1319.4776,0.020824
1321.3413,0.020884
1323.2049,0.021070
1325.0686,0.021298
1326.9323,0.021416
1328.7959,0.021460
1330.6596,0.021693
1332.5233,0.022021
1334.3869,0.022198
1336.2506,0.022393
1338.1143,0.022789
1339.9780,0.023186
1341.8416,0.023220
1343.7053,0.023331
1345.5690,0.023612
1347.4326,0.023848
1349.2963,0.024023
1351.1600,0.024377
1353.0236,0.024752
1354.8873,0.025022
1356.7510,0.025348
1358.6146,0.025731
1360.4783,0.026033
1362.3420,0.026638
1364.2056,0.027061
1366.0693,0.027308
1367.9330,0.027840
1369.7967,0.028305
1371.6603,0.028657
1373.5240,0.029050
1375.3877,0.029398
1377.2513,0.029855
1379.1150,0.030182
1380.9787,0.030337
1382.8423,0.030858
1384.7060,0.031387
1386.5697,0.031987
1388.4333,0.032239
1390.2970,0.032381
1392.1607,0.032830
1394.0244,0.033657
1395.8880,0.033933
1397.7517,0.033871
1399.6154,0.034128
1401.4790,0.034159
1403.3427,0.034549
1405.2064,0.034985
1407.0700,0.035177
1408.9337,0.035330
1410.7974,0.035691
1412.6610,0.035842
1414.5247,0.035915
1416.3884,0.035902
1418.2520,0.036047
1420.1157,0.035476
1421.9794,0.034767
1423.8431,0.034677
1425.7067,0.034273
1427.5704,0.034023
1429.4341,0.033928
1431.2977,0.033636
1433.1614,0.033167
1435.0251,0.033026
1436.8887,0.032905
1438.7524,0.031997
1440.6161,0.031927
1442.4797,0.031862
1444.3434,0.031607
1446.2071,0.031451
1448.0707,0.031211
1449.9344,0.030689
1451.7981,0.030603
1453.6618,0.030321
1455.5254,0.030353
1457.3891,0.029988
1459.2528,0.028660
1461.1164,0.027820
1462.9801,0.027452
1464.8438,0.027242
1466.7074,0.026595
1468.5711,0.026000
1470.4348,0.025603
1472.2984,0.025538
1474.1621,0.024507
1476.0258,0.023786
1477.8895,0.023075
1479.7531,0.022569
1481.6168,0.022295
1483.4805,0.021936
1485.3441,0.021824
1487.2078,0.021811
1489.0715,0.021677
1490.9351,0.021343
1492.7988,0.020844
1494.6625,0.020866
1496.5261,0.021018
1498.3898,0.020635
1500.2535,0.020393
1502.1171,0.020424
1503.9808,0.020553
1505.8445,0.021277
1507.7082,0.021436
1509.5718,0.020410
1511.4355,0.020118
1513.2992,0.020018
1515.1628,0.020196
1517.0265,0.020384
1518.8902,0.019973
1520.7538,0.020243
1522.6175,0.019895
1524.4812,0.019404
1526.3448,0.019059
1528.2085,0.018649
1530.0722,0.018360
1531.9359,0.018269
1533.7995,0.018499
1535.6632,0.018021
1537.5269,0.018128
1539.3905,0.018644
1541.2542,0.017872
1543.1179,0.016888
1544.9815,0.016144
1546.8452,0.015343
1548.7089,0.015414
1550.5725,0.015166
1552.4362,0.014734
1554.2999,0.014827
1556.1635,0.014454
1558.0272,0.015114
1559.8909,0.014559
1561.7546,0.012689
1563.6182,0.012394
1565.4819,0.012456
1567.3456,0.012370
1569.2092,0.012399
1571.0729,0.011975
1572.9366,0.011721
1574.8002,0.011973
1576.6639,0.011973
1578.5276,0.011417
1580.3912,0.011390
1582.2549,0.011339
1584.1186,0.011311
1585.9822,0.011344
1587.8459,0.011421
1589.7096,0.011542
1591.5733,0.011758
1593.4369,0.011879
1595.3006,0.011826
1597.1643,0.011853
1599.0279,0.012002
1600.8916,0.012250
1602.7553,0.012479
1604.6189,0.012574
1606.4826,0.012651
1608.3463,0.012846
1610.2099,0.013144
1612.0736,0.013541
1613.9373,0.013937
1615.8010,0.014771
1617.6646,0.015117
1619.5283,0.015181
1621.3920,0.015668
1623.2556,0.016180
1625.1193,0.016221
1626.9830,0.016434
1628.8466,0.016613
1630.7103,0.016813
1632.5740,0.017206
1634.4376,0.018075
1636.3013,0.018198
1638.1650,0.017568
1640.0286,0.017592
1641.8923,0.017661
1643.7560,0.017977
1645.6197,0.018427
1647.4833,0.018151
1649.3470,0.017540
1651.2107,0.018128
1653.0743,0.019008
1654.9380,0.016784
1656.8017,0.015998
1658.6653,0.015835
1660.5290,0.015582
1662.3927,0.015209
1664.2563,0.014458
1666.1200,0.014151
1667.9837,0.014266
1669.8474,0.014068
1671.7110,0.013000
1673.5747,0.012266
1675.4384,0.011917
1677.3020,0.010924
1679.1657,0.010405
1681.0294,0.009987
1682.8930,0.010136
1684.7567,0.009984
1686.6204,0.008461
1688.4840,0.007719
1690.3477,0.007030
1692.2114,0.006345
1694.0750,0.006182
1695.9387,0.006278
1697.8024,0.005299
1699.6661,0.005499
1701.5297,0.004496
1703.3934,0.003527
1705.2571,0.003309
1707.1207,0.002890
1708.9844,0.002377
1710.8481,0.001995
1712.7117,0.001868
1714.5754,0.002066
1716.4391,0.002392
1718.3027,0.002256
1720.1664,0.001293
1722.0301,0.000970
1723.8937,0.000833
1725.7574,0.000724
1727.6211,0.000688
1729.4848,0.000923
1731.3484,0.000841
1733.2121,0.001146
1735.0758,0.001108
1736.9394,0.000324
1738.8031,0.000159
1740.6668,-0.000026
1742.5304,-0.000066
1744.3941,-0.000136
1746.2578,-0.000132
1748.1214,-0.000187
1749.9851,-0.000350
1751.8488,-0.000200
1753.7125,-0.000464
1755.5761,-0.000647
1757.4398,-0.000715
1759.3035,-0.000836
1761.1671,-0.000677
1763.0308,-0.000672
1764.8945,-0.001007
1766.7581,-0.001003
1768.6218,-0.000935
1770.4855,-0.000811
1772.3491,-0.000284
1774.2128,-0.000680
1776.0765,-0.001161
1777.9401,-0.001354
1779.8038,-0.001013
1781.6675,-0.000916
1783.5312,-0.001121
1785.3948,-0.001200
1787.2585,-0.001115
1789.1222,-0.000959
1790.9858,-0.000514
1792.8495,-0.000183
1794.7132,-0.000495
1796.5768,-0.000659
1798.4405,-0.000369
1800.3042,-0.000078
1802.1678,-0.000321
1804.0315,-0.000797
1805.8952,-0.001100
1807.7589,-0.001115
1809.6225,-0.001121
1811.4862,-0.001157
1813.3499,-0.001218
1815.2135,-0.001468
1817.0772,-0.001631
1818.9409,-0.001408
1820.8045,-0.001313
1822.6682,-0.001443
1824.5319,-0.001364
1826.3955,-0.001330
1828.2592,-0.001261
1830.1229,-0.000954
1831.9865,-0.001097
1833.8502,-0.001264
1835.7139,-0.001238
1837.5776,-0.001245
1839.4412,-0.001425
1841.3049,-0.001467
1843.1686,-0.001203
1845.0322,-0.000979
1846.8959,-0.001156
1848.7596,-0.001296
1850.6232,-0.001378
1852.4869,-0.001521
1854.3506,-0.001560
1856.2142,-0.001234
1858.0779,-0.001175
1859.9416,-0.001133
1861.8052,-0.001239
1863.6689,-0.001503
1865.5326,-0.001536
1867.3963,-0.001135
1869.2599,-0.000859
1871.1236,-0.000957
1872.9873,-0.001312
1874.8509,-0.001600
1876.7146,-0.001421
1878.5783,-0.001132
1880.4419,-0.001334
1882.3056,-0.001440
1884.1693,-0.001348
1886.0329,-0.001393
1887.8966,-0.001285
1889.7603,-0.001031
1891.6240,-0.001309
1893.4876,-0.001477
1895.3513,-0.001239
1897.2150,-0.000923
1899.0786,-0.001001
1900.9423,-0.001305
1902.8060,-0.001209
1904.6696,-0.001105
1906.5333,-0.001592
1908.3970,-0.001758
1910.2606,-0.001435
1912.1243,-0.001496
1913.9880,-0.001556
1915.8516,-0.001381
1917.7153,-0.001247
1919.5790,-0.001184
1921.4427,-0.001349
1923.3063,-0.001371
1925.1700,-0.001428
1927.0337,-0.001319
1928.8973,-0.001186
1930.7610,-0.001365
1932.6247,-0.001302
1934.4883,-0.001243
1936.3520,-0.001339
1938.2157,-0.000967
1940.0793,-0.000904
1941.9430,-0.000786
1943.8067,-0.000896
1945.6704,-0.001471
1947.5340,-0.001721
1949.3977,-0.001352
1951.2614,-0.001197
1953.1250,-0.001253
1954.9887,-0.000845
1956.8524,-0.000658
1958.7160,-0.001237
1960.5797,-0.000931
1962.4434,-0.000549
1964.3070,-0.000929
1966.1707,-0.000805
1968.0344,-0.000351
1969.8980,-0.000851
1971.7617,-0.001812
1973.6254,-0.002075
1975.4891,-0.001361
1977.3527,-0.000582
1979.2164,-0.000281
1981.0801,-0.000479
1982.9437,-0.000552
1984.8074,-0.000603
1986.6711,-0.000625
1988.5347,-0.000773
1990.3984,-0.000944
1992.2621,-0.000764
1994.1257,-0.000770
1995.9894,-0.000943
1997.8531,-0.001097
1999.7167,-0.001174
2001.5804,-0.000895
2003.4441,-0.000954
2005.3078,-0.001020
2007.1714,-0.000681
2009.0351,-0.000533
2010.8988,-0.000988
2012.7624,-0.001239
2014.6261,-0.001290
2016.4898,-0.001253
2018.3534,-0.001174
2020.2171,-0.001628
2022.0808,-0.002022
2023.9444,-0.001259
2025.8081,-0.000346
2027.6718,-0.000032
2029.5355,-0.000504
2031.3991,-0.000676
2033.2628,-0.000532
2035.1265,-0.000936
2036.9901,-0.001445
2038.8538,-0.001293
2040.7175,-0.000757
2042.5811,-0.000639
2044.4448,-0.001303
2046.3085,-0.001439
2048.1721,-0.000538
2050.0358,-0.000018
2051.8995,-0.000506
2053.7631,-0.001052
2055.6268,-0.001076
2057.4905,-0.000684
2059.3542,-0.000546
2061.2178,-0.000757
2063.0815,-0.001297
2064.9452,-0.001682
2066.8088,-0.001276
2068.6725,-0.000773
2070.5362,-0.000928
2072.3998,-0.001175
2074.2635,-0.000943
2076.1272,-0.000374
2077.9908,-0.000270
2079.8545,-0.000492
2081.7182,-0.001039
2083.5819,-0.001562
2085.4455,-0.001483
2087.3092,-0.001431
2089.1729,-0.001464
2091.0365,-0.001120
2092.9002,-0.000948
2094.7639,-0.001297
2096.6275,-0.001416
2098.4912,-0.001028
2100.3549,-0.001021
2102.2185,-0.001332
2104.0822,-0.001574
2105.9459,-0.001358
2107.8095,-0.000900
2109.6732,-0.000884
2111.5369,-0.001290
2113.4006,-0.001639
2115.2642,-0.001521
2117.1279,-0.001268
2118.9916,-0.001446
2120.8552,-0.001289
2122.7189,-0.001112
2124.5826,-0.001218
2126.4462,-0.001198
2128.3099,-0.001298
2130.1736,-0.001276
2132.0372,-0.001186
2133.9009,-0.001304
2135.7646,-0.001413
2137.6282,-0.001840
2139.4919,-0.001962
2141.3556,-0.001550
2143.2193,-0.001019
2145.0829,-0.001255
2146.9466,-0.002222
2148.8103,-0.002285
2150.6739,-0.001864
2152.5376,-0.001654
2154.4013,-0.001363
2156.2649,-0.001345
2158.1286,-0.000863
2159.9923,-0.000275
2161.8559,-0.000483
2163.7196,-0.001590
2165.5833,-0.001996
2167.4470,-0.000658
2169.3106,-0.000043
2171.1743,-0.000825
2173.0380,-0.001647
2174.9016,-0.001921
2176.7653,-0.001844
2178.6290,-0.001541
2180.4926,-0.000769
2182.3563,-0.000298
2184.2200,-0.000055
2186.0836,-0.000186
2187.9473,-0.000841
2189.8110,-0.001513
2191.6746,-0.000958
2193.5383,-0.000305
2195.4020,-0.000933
2197.2657,-0.001622
2199.1293,-0.001399
2200.9930,-0.000811
2202.8567,-0.001267
2204.7203,-0.001546
2206.5840,-0.000636
2208.4477,-0.000620
2210.3113,-0.001074
2212.1750,-0.000603
2214.0387,-0.000573
2215.9023,-0.001087
2217.7660,-0.001318
2219.6297,-0.001452
2221.4934,-0.001085
2223.3570,-0.000799
2225.2207,-0.001312
2227.0844,-0.001541
2228.9480,-0.000782
2230.8117,-0.000718
2232.6754,-0.001153
2234.5390,-0.000991
2236.4027,-0.001124
2238.2664,-0.001753
2240.1300,-0.001933
2241.9937,-0.001475
2243.8574,-0.001140
2245.7210,-0.001537
2247.5847,-0.001843
2249.4484,-0.001366
2251.3121,-0.000865
2253.1757,-0.000926
2255.0394,-0.001225
2256.9031,-0.001585
2258.7667,-0.001827
2260.6304,-0.001830
2262.4941,-0.001657
2264.3577,-0.001696
2266.2214,-0.001506
2268.0851,-0.001246
2269.9487,-0.001188
2271.8124,-0.000984
2273.6761,-0.000902
2275.5397,-0.001161
2277.4034,-0.001344
2279.2671,-0.001178
2281.1308,-0.001289
2282.9944,-0.001598
2284.8581,-0.001330
2286.7218,-0.000925
2288.5854,-0.001130
2290.4491,-0.001580
2292.3128,-0.001593
2294.1764,-0.001740
2296.0401,-0.001897
2297.9038,-0.001463
2299.7674,-0.001185
2301.6311,-0.001283
2303.4948,-0.001184
2305.3585,-0.000967
2307.2221,-0.000728
2309.0858,-0.000528
2310.9495,-0.000543
2312.8131,-0.000731
2314.6768,-0.000819
2316.5405,-0.000533
2318.4041,-0.000105
2320.2678,0.000405
2322.1315,0.000766
2323.9951,0.000767
2325.8588,0.000453
2327.7225,0.000416
2329.5861,0.000698
2331.4498,0.000784
2333.3135,0.000684
2335.1772,0.000304
2337.0408,0.000220
2338.9045,0.000614
2340.7682,0.000703
2342.6318,0.000378
2344.4955,-0.000086
2346.3592,-0.000287
2348.2228,-0.000618
2350.0865,-0.000780
2351.9502,-0.000130
2353.8138,0.000483
2355.6775,0.000698
2357.5412,0.001237
2359.4049,0.001875
2361.2685,0.002297
2363.1322,0.002364
2364.9959,0.001861
2366.8595,0.001209
2368.7232,0.000893
2370.5869,0.000639
2372.4505,0.000435
2374.3142,0.000053
2376.1779,-0.000810
2378.0415,-0.001576
2379.9052,-0.002007
2381.7689,-0.002094
2383.6325,-0.002148
2385.4962,-0.002571
2387.3599,-0.002651
2389.2236,-0.002356
2391.0872,-0.002584
2392.9509,-0.002886
2394.8146,-0.002862
2396.6782,-0.002948
2398.5419,-0.002880
2400.4056,-0.002674
2402.2692,-0.002700
2404.1329,-0.002601
2405.9966,-0.002637
2407.8602,-0.002660
2409.7239,-0.002578
2411.5876,-0.002766
2413.4512,-0.002979
2415.3149,-0.002773
2417.1786,-0.002446
2419.0423,-0.002511
2420.9059,-0.002680
2422.7696,-0.002856
2424.6333,-0.003000
2426.4969,-0.002617
2428.3606,-0.002271
2430.2243,-0.002299
2432.0879,-0.002471
2433.9516,-0.002395
2435.8153,-0.002401
2437.6789,-0.002760
2439.5426,-0.002891
2441.4063,-0.002543
2443.2700,-0.002524
2445.1336,-0.002815
2446.9973,-0.002910
2448.8610,-0.002592
2450.7246,-0.002413
2452.5883,-0.002685
2454.4520,-0.002702
2456.3156,-0.002374
2458.1793,-0.002230
2460.0430,-0.002503
2461.9066,-0.002810
2463.7703,-0.002670
2465.6340,-0.002505
2467.4976,-0.002694
2469.3613,-0.002876
2471.2250,-0.002750
2473.0887,-0.002773
2474.9523,-0.002719
2476.8160,-0.002209
2478.6797,-0.002146
2480.5433,-0.002498
2482.4070,-0.002325
2484.2707,-0.002161
2486.1343,-0.002376
2487.9980,-0.002641
2489.8617,-0.002593
2491.7253,-0.002407
2493.5890,-0.002299
2495.4527,-0.002582
2497.3164,-0.003028
2499.1800,-0.003004
2501.0437,-0.002676
2502.9074,-0.002270
2504.7710,-0.002258
2506.6347,-0.002354
2508.4984,-0.002246
2510.3620,-0.002246
2512.2257,-0.002221
2514.0894,-0.002375
2515.9530,-0.002369
2517.8167,-0.002296
2519.6804,-0.002490
2521.5440,-0.002460
2523.4077,-0.002314
2525.2714,-0.002493
2527.1351,-0.002593
2528.9987,-0.002470
2530.8624,-0.002375
2532.7261,-0.002158
2534.5897,-0.001875
2536.4534,-0.002012
2538.3171,-0.002528
2540.1807,-0.003186
2542.0444,-0.003123
2543.9081,-0.002489
2545.7717,-0.002286
2547.6354,-0.002741
2549.4991,-0.003217
2551.3627,-0.002956
2553.2264,-0.002456
2555.0901,-0.002506
2556.9538,-0.002847
2558.8174,-0.002972
2560.6811,-0.002683
2562.5448,-0.002481
2564.4084,-0.002511
2566.2721,-0.002470
2568.1358,-0.002546
2569.9994,-0.002715
2571.8631,-0.002660
2573.7268,-0.002575
2575.5904,-0.002720
2577.4541,-0.002661
2579.3178,-0.002438
2581.1815,-0.002737
2583.0451,-0.002828
2584.9088,-0.002610
2586.7725,-0.002597
2588.6361,-0.002530
2590.4998,-0.002471
2592.3635,-0.002297
2594.2271,-0.002420
2596.0908,-0.002795
2597.9545,-0.002867
2599.8181,-0.002775
2601.6818,-0.002961
2603.5455,-0.003098
2605.4091,-0.002922
2607.2728,-0.002790
2609.1365,-0.002824
2611.0002,-0.002916
2612.8638,-0.002747
2614.7275,-0.002473
2616.5912,-0.002326
2618.4548,-0.002398
2620.3185,-0.002435
2622.1822,-0.002544
2624.0458,-0.002737
2625.9095,-0.002786
2627.7732,-0.002846
2629.6368,-0.002867
2631.5005,-0.002764
2633.3642,-0.002746
2635.2279,-0.002716
2637.0915,-0.002796
2638.9552,-0.003069
2640.8189,-0.003147
2642.6825,-0.003022
2644.5462,-0.002868
2646.4099,-0.002866
2648.2735,-0.003148
2650.1372,-0.003151
2652.0009,-0.002935
2653.8645,-0.002822
2655.7282,-0.002766
2657.5919,-0.002902
2659.4555,-0.002995
2661.3192,-0.002960
2663.1829,-0.003201
2665.0466,-0.003233
2666.9102,-0.003117
2668.7739,-0.003067
2670.6376,-0.003022
2672.5012,-0.003242
2674.3649,-0.003258
2676.2286,-0.002794
2678.0922,-0.002673
2679.9559,-0.002834
2681.8196,-0.002889
2683.6832,-0.002866
2685.5469,-0.002891
2687.4106,-0.003134
2689.2742,-0.003268
2691.1379,-0.003337
2693.0016,-0.003235
2694.8653,-0.003082
2696.7289,-0.003160
2698.5926,-0.002970
2700.4563,-0.002788
2702.3199,-0.002957
2704.1836,-0.003138
2706.0473,-0.003227
2707.9109,-0.003197
2709.7746,-0.003019
2711.6383,-0.002885
2713.5019,-0.002902
2715.3656,-0.003086
2717.2293,-0.003035
2719.0930,-0.002889
2720.9566,-0.002927
2722.8203,-0.002779
2724.6840,-0.002783
2726.5476,-0.003078
2728.4113,-0.003099
2730.2750,-0.002834
2732.1386,-0.002838
2734.0023,-0.002984
2735.8660,-0.002935
2737.7296,-0.002865
2739.5933,-0.002807
2741.4570,-0.002614
2743.3206,-0.002663
2745.1843,-0.002923
2747.0480,-0.003026
2748.9117,-0.002937
2750.7753,-0.002581
2752.6390,-0.002687
2754.5027,-0.003065
2756.3663,-0.003018
2758.2300,-0.002959
2760.0937,-0.003017
2761.9573,-0.002736
2763.8210,-0.002421
2765.6847,-0.002500
2767.5483,-0.002649
2769.4120,-0.002565
2771.2757,-0.002574
2773.1394,-0.002677
2775.0030,-0.002678
2776.8667,-0.002402
2778.7304,-0.002290
2780.5940,-0.002615
2782.4577,-0.002733
2784.3214,-0.002657
2786.1850,-0.002650
2788.0487,-0.002917
2789.9124,-0.002818
2791.7760,-0.002449
2793.6397,-0.002461
2795.5034,-0.002684
2797.3670,-0.002598
2799.2307,-0.002219
2801.0944,-0.002288
2802.9581,-0.002480
2804.8217,-0.002450
2806.6854,-0.002477
2808.5491,-0.002593
2810.4127,-0.002636
2812.2764,-0.002655
2814.1401,-0.002526
2816.0037,-0.002256
2817.8674,-0.002221
2819.7311,-0.002494
2821.5947,-0.002359
2823.4584,-0.001928
2825.3221,-0.001870
2827.1857,-0.001917
2829.0494,-0.001814
2830.9131,-0.001968
2832.7768,-0.002098
2834.6404,-0.001877
2836.5041,-0.001557
2838.3678,-0.001654
2840.2314,-0.001812
2842.0951,-0.002083
2843.9588,-0.001970
2845.8224,-0.001587
2847.6861,-0.001777
2849.5498,-0.002071
2851.4134,-0.001809
2853.2771,-0.001274
2855.1408,-0.001078
2857.0045,-0.001315
2858.8681,-0.001456
2860.7318,-0.001229
2862.5955,-0.001014
2864.4591,-0.000875
2866.3228,-0.000921
2868.1865,-0.001028
2870.0501,-0.001171
2871.9138,-0.001046
2873.7775,-0.000961
2875.6411,-0.000942
2877.5048,-0.001130
2879.3685,-0.001026
2881.2321,-0.000507
2883.0958,-0.000331
2884.9595,-0.000490
2886.8232,-0.000686
2888.6868,-0.000988
2890.5505,-0.001193
2892.4142,-0.001013
2894.2778,-0.000782
2896.1415,-0.000663
2898.0052,-0.000727
2899.8688,-0.000905
2901.7325,-0.000658
2903.5962,-0.000636
2905.4598,-0.000731
2907.3235,-0.000700
2909.1872,-0.000694
2911.0509,-0.000654
2912.9145,-0.000585
2914.7782,-0.000140
2916.6419,0.000234
2918.5055,0.000145
2920.3692,-0.000330
2922.2329,-0.000214
2924.0965,-0.000061
2925.9602,0.000336
2927.8239,0.000797
2929.6875,0.000513
2931.5512,0.000238
2933.4149,0.000318
2935.2785,0.000155
2937.1422,0.000040
2939.0059,0.000051
2940.8696,-0.000180
2942.7332,-0.000398
2944.5969,-0.000182
2946.4606,-0.000038
2948.3242,-0.000291
2950.1879,-0.000451
2952.0516,-0.000447
2953.9152,-0.000484
2955.7789,-0.000448
2957.6426,-0.000551
2959.5062,-0.000489
2961.3699,-0.000284
2963.2336,-0.000217
2965.0972,-0.000221
2966.9609,-0.000217
2968.8246,-0.000419
2970.6883,-0.000685
2972.5519,-0.000695
2974.4156,-0.000779
2976.2793,-0.000876
2978.1429,-0.000746
2980.0066,-0.000608
2981.8703,-0.000450
2983.7339,-0.000687
2985.5976,-0.000885
2987.4613,-0.000771
2989.3249,-0.000631
2991.1886,-0.000929
2993.0523,-0.001091
2994.9160,-0.001015
2996.7796,-0.001067
2998.6433,-0.001343
3000.5070,-0.001210
3002.3706,-0.000898
3004.2343,-0.000827
3006.0980,-0.000841
3007.9616,-0.000759
3009.8253,-0.000713
3011.6890,-0.000679
3013.5526,-0.000665
3015.4163,-0.000848
3017.2800,-0.001174
3019.1436,-0.001126
3021.0073,-0.001122
3022.8710,-0.000624
3024.7347,-0.000077
3026.5983,-0.000658
3028.4620,-0.001129
3030.3257,-0.000753
3032.1893,-0.000703
3034.0530,-0.001031
3035.9167,-0.000908
3037.7803,-0.000870
3039.6440,-0.000996
3041.5077,-0.000801
3043.3713,-0.000353
3045.2350,-0.000494
3047.0987,-0.000682
3048.9624,-0.000506
3050.8260,-0.000299
3052.6897,-0.000161
3054.5534,-0.000362
3056.4170,-0.000330
3058.2807,-0.000136
3060.1444,0.000167
3062.0080,0.000060
3063.8717,-0.000084
3065.7354,0.000343
3067.5990,0.000310
3069.4627,-0.000315
3071.3264,-0.000606
3073.1900,-0.000320
3075.0537,0.000135
3076.9174,0.000347
3078.7811,0.000557
3080.6447,0.000638
3082.5084,0.000283
3084.3721,0.000610
3086.2357,0.000927
3088.0994,0.000589
3089.9631,0.000201
3091.8267,0.000312
3093.6904,0.000729
3095.5541,0.000925
3097.4177,0.000861
3099.2814,0.000578
3101.1451,0.000821
3103.0087,0.001234
3104.8724,0.001004
3106.7361,0.000371
3108.5998,0.000365
3110.4634,0.000958
3112.3271,0.001387
3114.1908,0.001652
3116.0544,0.001346
3117.9181,0.000806
3119.7818,0.000421
3121.6454,0.000746
3123.5091,0.001125
3125.3728,0.001186
3127.2364,0.001521
3129.1001,0.001391
3130.9638,0.000750
3132.8275,0.000580
3134.6911,0.000967
3136.5548,0.001773
3138.4185,0.001898
3140.2821,0.001406
3142.1458,0.001901
3144.0095,0.002368
3145.8731,0.002105
3147.7368,0.002194
3149.6005,0.001819
3151.4641,0.001629
3153.3278,0.001860
3155.1915,0.001825
3157.0551,0.001969
3158.9188,0.002320
3160.7825,0.002370
3162.6462,0.002267
3164.5098,0.002470
3166.3735,0.002504
3168.2372,0.001931
3170.1008,0.002056
3171.9645,0.002150
3173.8282,0.001849
3175.6918,0.002053
3177.5555,0.002733
3179.4192,0.002558
3181.2828,0.001981
3183.1465,0.002517
3185.0102,0.002955
3186.8739,0.002722
3188.7375,0.002928
3190.6012,0.003015
3192.4649,0.003022
3194.3285,0.003284
3196.1922,0.003315
3198.0559,0.003030
3199.9195,0.003405
3201.7832,0.003195
3203.6469,0.003633
3205.5105,0.004663
3207.3742,0.004012
3209.2379,0.003113
3211.1015,0.003439
3212.9652,0.003921
3214.8289,0.003742
3216.6926,0.003510
3218.5562,0.003172
3220.4199,0.002843
3222.2836,0.003543
3224.1472,0.003926
3226.0109,0.003906
3227.8746,0.004102
3229.7382,0.004331
3231.6019,0.004169
3233.4656,0.004132
3235.3292,0.003492
3237.1929,0.003574
3239.0566,0.004630
3240.9202,0.004452
3242.7839,0.004184
3244.6476,0.004683
3246.5113,0.004511
3248.3749,0.004223
3250.2386,0.004358
3252.1023,0.004680
3253.9659,0.004903
3255.8296,0.004640
3257.6933,0.004586
3259.5569,0.004729
3261.4206,0.004512
3263.2843,0.003851
3265.1479,0.003669
3267.0116,0.004254
3268.8753,0.004564
3270.7390,0.004798
3272.6026,0.004901
3274.4663,0.005203
3276.3300,0.005543
3278.1936,0.005973
3280.0573,0.006106
3281.9210,0.005723
3283.7846,0.005523
3285.6483,0.005635
3287.5120,0.005798
3289.3756,0.005730
3291.2393,0.004927
3293.1030,0.004402
3294.9666,0.004578
3296.8303,0.004958
3298.6940,0.005561
3300.5577,0.005826
3302.4213,0.005036
3304.2850,0.004518
3306.1487,0.005650
3308.0123,0.006546
3309.8760,0.006044
3311.7397,0.005143
3313.6033,0.005119
3315.4670,0.005168
3317.3307,0.004378
3319.1943,0.004352
3321.0580,0.005355
3322.9217,0.005416
3324.7854,0.005621
3326.6490,0.005781
3328.5127,0.005455
3330.3764,0.005188
3332.2400,0.004959
3334.1037,0.004979
3335.9674,0.004825
3337.8310,0.005279
3339.6947,0.005066
3341.5584,0.005572
3343.4220,0.006272
3345.2857,0.004895
3347.1494,0.003596
3349.0130,0.004110
3350.8767,0.005026
3352.7404,0.005283
3354.6041,0.005011
3356.4677,0.005518
3358.3314,0.005500
3360.1951,0.004806
3362.0587,0.004704
3363.9224,0.004957
3365.7861,0.005249
3367.6497,0.005110
3369.5134,0.005555
3371.3771,0.006219
3373.2407,0.005894
3375.1044,0.005521
3376.9681,0.004856
3378.8317,0.004449
3380.6954,0.004582
3382.5591,0.004354
3384.4228,0.004780
3386.2864,0.005442
3388.1501,0.005017
3390.0138,0.005340
3391.8774,0.004692
3393.7411,0.003074
3395.6048,0.004117
3397.4684,0.006022
3399.3321,0.005607
3401.1958,0.005140
3403.0594,0.005736
3404.9231,0.005529
3406.7868,0.004573
3408.6505,0.004489
3410.5141,0.005371
3412.3778,0.005475
3414.2415,0.004747
3416.1051,0.003541
3417.9688,0.003345
3419.8325,0.003207
3421.6961,0.003373
3423.5598,0.004789
3425.4235,0.004275
3427.2871,0.003319
3429.1508,0.004680
3431.0145,0.004525
3432.8781,0.004067
3434.7418,0.003786
3436.6055,0.003109
3438.4692,0.003026
3440.3328,0.003452
3442.1965,0.003745
3444.0602,0.003763
3445.9238,0.004051
3447.7875,0.003387
3449.6512,0.002591
3451.5148,0.001835
3453.3785,0.002740
3455.2422,0.003738
3457.1058,0.003686
3458.9695,0.003634
3460.8332,0.003166
3462.6969,0.002493
3464.5605,0.004019
3466.4242,0.005203
3468.2879,0.004891
3470.1515,0.003375
3472.0152,0.002648
3473.8789,0.003082
3475.7425,0.003439
3477.6062,0.003423
3479.4699,0.003014
3481.3335,0.002961
3483.1972,0.003271
3485.0609,0.002359
3486.9245,0.002246
3488.7882,0.003061
3490.6519,0.004075
3492.5156,0.004933
3494.3792,0.003897
3496.2429,0.003381
3498.1066,0.003902
3499.9702,0.003341
3501.8339,0.002813
3503.6976,0.002841
3505.5612,0.003209
3507.4249,0.002780
3509.2886,0.002072
3511.1522,0.002376
3513.0159,0.001822
3514.8796,0.001774
3516.7432,0.002897
3518.6069,0.002762
3520.4706,0.002552
3522.3343,0.002838
3524.1979,0.002390
3526.0616,0.002782
3527.9253,0.002190
3529.7889,0.001569
3531.6526,0.003076
3533.5163,0.003390
3535.3799,0.002022
3537.2436,0.001284
3539.1073,0.002462
3540.9709,0.003599
3542.8346,0.003219
3544.6983,0.002316
3546.5620,0.001740
3548.4256,0.002253
3550.2893,0.002771
3552.1530,0.001988
3554.0166,0.001891
3555.8803,0.002872
3557.7440,0.002956
3559.6076,0.002408
3561.4713,0.001648
3563.3350,0.000670
3565.1986,-0.000376
3567.0623,0.000165
3568.9260,0.000959
3570.7896,0.001117
3572.6533,0.001322
3574.5170,0.001030
3576.3807,0.000621
3578.2443,0.000377
3580.1080,0.000704
3581.9717,0.000617
3583.8353,0.000489
3585.6990,0.001122
3587.5627,0.001392
3589.4263,0.001255
3591.2900,0.001451
3593.1537,0.001096
3595.0173,0.001117
3596.8810,0.002237
3598.7447,0.001246
3600.6084,0.000371
3602.4720,0.000400
3604.3357,0.000065
3606.1994,0.000480
3608.0630,0.001015
3609.9267,0.001319
3611.7904,0.000735
3613.6540,-0.000116
3615.5177,0.000089
3617.3814,0.001079
3619.2450,0.000792
3621.1087,0.000833
3622.9724,0.001294
3624.8360,0.000980
3626.6997,0.000365
3628.5634,-0.001028
3630.4271,-0.000374
3632.2907,0.001318
3634.1544,0.000246
3636.0181,-0.000562
3637.8817,-0.000209
3639.7454,-0.000247
3641.6091,0.000006
3643.4727,0.000278
3645.3364,0.000032
3647.2001,0.000364
3649.0637,0.001097
3650.9274,0.001381
3652.7911,0.000654
3654.6547,-0.000261
3656.5184,-0.001304
3658.3821,-0.001452
3660.2458,-0.000637
3662.1094,-0.000623
3663.9731,-0.000770
3665.8368,0.000143
3667.7004,0.000175
3669.5641,-0.001072
3671.4278,-0.001201
3673.2914,-0.000625
3675.1551,-0.001004
3677.0188,-0.000524
3678.8824,0.000311
3680.7461,-0.000685
3682.6098,-0.001014
3684.4735,-0.001360
3686.3371,-0.001351
3688.2008,-0.000405
3690.0645,-0.000264
3691.9281,-0.000681
3693.7918,-0.000761
3695.6555,-0.000578
3697.5191,-0.000585
3699.3828,-0.000517
3701.2465,-0.000739
3703.1101,-0.000550
3704.9738,0.000004
3706.8375,0.000473
3708.7011,0.000169
3710.5648,-0.000229
3712.4285,0.000095
3714.2922,-0.000054
3716.1558,-0.000445
3718.0195,-0.001209
3719.8832,-0.001059
3721.7468,0.000130
3723.6105,0.000075
3725.4742,-0.000308
3727.3378,-0.000415
3729.2015,-0.000786
3731.0652,-0.000346
3732.9288,0.000697
3734.7925,0.001045
3736.6562,-0.000369
3738.5199,-0.000237
3740.3835,-0.000091
3742.2472,-0.000602
3744.1109,-0.001307
3745.9745,-0.000525
3747.8382,0.001134
3749.7019,-0.000421
3751.5655,-0.000548
3753.4292,0.000665
3755.2929,0.000437
3757.1565,-0.000630
3759.0202,-0.000971
3760.8839,-0.000790
3762.7475,-0.000884
3764.6112,-0.001271
3766.4749,-0.001331
3768.3386,-0.000503
3770.2022,-0.000297
3772.0659,-0.000276
3773.9296,-0.000204
3775.7932,-0.000570
3777.6569,-0.000356
3779.5206,0.000129
3781.3842,-0.000102
3783.2479,0.000162
3785.1116,-0.000133
3786.9752,-0.000702
3788.8389,-0.000779
3790.7026,-0.000367
3792.5662,-0.000073
3794.4299,-0.000369
3796.2936,-0.000373
3798.1573,0.000057
3800.0209,0.000205
3801.8846,-0.000724
3803.7483,-0.000449
3805.6119,0.000016
3807.4756,-0.000212
3809.3393,-0.000232
3811.2029,-0.000361
3813.0666,-0.000546
3814.9303,-0.000685
3816.7939,-0.001221
3818.6576,-0.000703
3820.5213,-0.001011
3822.3850,-0.001241
3824.2486,0.000234
3826.1123,0.000490
3827.9760,0.000786
3829.8396,0.000768
3831.7033,0.000250
3833.5670,0.000513
3835.4306,0.000347
3837.2943,-0.000139
3839.1580,-0.000122
3841.0216,-0.000123
3842.8853,-0.000259
3844.7490,0.000361
3846.6126,0.000938
3848.4763,0.000427
3850.3400,-0.000140
3852.2037,0.000554
3854.0673,0.001014
3855.9310,0.000920
3857.7947,0.000691
3859.6583,0.000327
3861.5220,0.000058
3863.3857,0.000309
3865.2493,0.000295
3867.1130,0.000241
3868.9767,0.000309
3870.8403,-0.000004
3872.7040,0.000816
3874.5677,0.000021
3876.4314,0.000047
3878.2950,0.000386
3880.1587,0.000059
3882.0224,0.001061
3883.8860,0.001019
3885.7497,0.000310
3887.6134,0.000464
3889.4770,-0.000523
3891.3407,-0.000993
3893.2044,0.000122
3895.0680,0.000552
3896.9317,0.000389
3898.7954,0.000837
3900.6590,0.001380
3902.5227,0.001638
3904.3864,0.001740
3906.2501,0.000929
3908.1137,0.000047
3909.9774,-0.000310
3911.8411,-0.000361
3913.7047,-0.000197
3915.5684,0.000195
3917.4321,0.000934
3919.2957,0.001585
3921.1594,0.001147
3923.0231,0.001128
3924.8867,0.001249
3926.7504,0.000824
3928.6141,0.001135
3930.4777,0.001225
3932.3414,0.001150
3934.2051,0.001211
3936.0688,0.000971
3937.9324,0.000457
3939.7961,0.000468
3941.6598,0.000610
3943.5234,0.000771
3945.3871,0.000719
3947.2508,0.000651
3949.1144,0.000542
3950.9781,0.000466
3952.8418,0.000468
3954.7054,0.000763
3956.5691,0.001153
3958.4328,0.001335
3960.2965,0.000925
3962.1601,0.000158
3964.0238,0.000457
3965.8875,0.000599
3967.7511,0.000618
3969.6148,0.000857
3971.4785,0.001076
3973.3421,0.000829
3975.2058,0.000987
3977.0695,0.001589
3978.9331,0.001643
3980.7968,0.001449
3982.6605,0.001167
3984.5241,0.000749
3986.3878,0.000389
3988.2515,0.000164
3990.1152,0.000657
3991.9788,0.001793
3993.8425,0.001936
3995.7062,0.001255
3997.5698,0.000727
3999.4335,0.000508
4001.2972,0.000525
4003.1608,0.001528
4005.0245,0.001572
4006.8882,0.001504
4008.7518,0.001830
4010.6155,0.000937
4012.4792,0.000253
4014.3429,0.000490
4016.2065,0.000551
4018.0702,0.000636
4019.9339,0.001002
4021.7975,0.001126
4023.6612,0.001325
4025.5249,0.001185
4027.3885,0.000896
4029.2522,0.001373
4031.1159,0.002083
4032.9795,0.002158
4034.8432,0.001644
4036.7069,0.001271
4038.5705,0.001165
4040.4342,0.001099
4042.2979,0.001185
4044.1616,0.001511
4046.0252,0.001384
4047.8889,0.001259
4049.7526,0.001084
4051.6162,0.001796
4053.4799,0.002321
4055.3436,0.002009
4057.2072,0.001920
4059.0709,0.001578
4060.9346,0.001223
4062.7982,0.001527
4064.6619,0.001931
4066.5256,0.001835
4068.3892,0.001750
4070.2529,0.001589
4072.1166,0.001156
4073.9803,0.001295
4075.8439,0.001376
4077.7076,0.001298
4079.5713,0.001475
4081.4349,0.001391
4083.2986,0.001319
4085.1623,0.001570
4087.0259,0.001514
4088.8896,0.001551
4090.7533,0.001833
4092.6169,0.001900
4094.4806,0.001248
4096.3443,0.000917
4098.2080,0.001566
4100.0716,0.002073
