Wavenumber,Intensity
600.1014,0.005829
601.9651,0.005004
603.8287,0.002092
605.6924,-0.001836
607.5561,-0.004061
609.4197,-0.002749
611.2834,0.002905
613.1471,0.002930
615.0107,0.005445
616.8744,0.003644
618.7381,0.000338
620.6017,0.001868
622.4654,0.002300
624.3291,0.001716
626.1928,0.001118
628.0564,0.001403
629.9201,0.002852
631.7838,0.002577
633.6474,0.001553
635.5111,0.004628
637.3748,0.007102
639.2384,0.004371
641.1021,0.003065
642.9658,0.002476
644.8294,0.001883
646.6931,0.003945
648.5568,0.004507
650.4205,0.003059
652.2841,0.001972
654.1478,0.001549
656.0115,0.003173
657.8751,0.003945
659.7388,0.003554
661.6025,0.002450
663.4661,0.002290
665.3298,0.002931
667.1935,0.008684
669.0571,0.009031
670.9208,0.003847
672.7845,0.003588
674.6481,0.004275
676.5118,0.003944
678.3755,0.003746
680.2392,0.004455
682.1028,0.004883
683.9665,0.005386
685.8302,0.006010
687.6938,0.005484
689.5575,0.004952
691.4212,0.006895
693.2848,0.008406
695.1485,0.008612
697.0122,0.008263
698.8758,0.007053
700.7395,0.005292
702.6032,0.004199
704.4669,0.003593
706.3305,0.003305
708.1942,0.003384
710.0579,0.003729
711.9215,0.003535
713.7852,0.002913
715.6489,0.002870
717.5125,0.003021
719.3762,0.003448
721.2399,0.003723
723.1035,0.003440
724.9672,0.003066
726.8309,0.002892
728.6945,0.003128
730.5582,0.003164
732.4219,0.003592
734.2856,0.003764
736.1492,0.003859
738.0129,0.003784
739.8766,0.003755
741.7402,0.003654
743.6039,0.003744
745.4676,0.004156
747.3312,0.004511
749.1949,0.004403
751.0586,0.004607
752.9222,0.004590
754.7859,0.004604
756.6496,0.005048
758.5132,0.005503
760.3769,0.006010
762.2406,0.006104
764.1043,0.005999
765.9679,0.006723
767.8316,0.007842
769.6953,0.009199
771.5589,0.010893
773.4226,0.013375
775.2863,0.016435
777.1499,0.019151
779.0136,0.020541
780.8773,0.020184
782.7409,0.018440
784.6046,0.016277
786.4683,0.014440
788.3320,0.013596
790.1956,0.014505
792.0593,0.016283
793.9230,0.018309
795.7866,0.020813
797.6503,0.022531
799.5140,0.022436
801.3776,0.020791
803.2413,0.018148
805.1050,0.014666
806.9686,0.011128
808.8323,0.008163
810.6960,0.006120
812.5596,0.004822
814.4233,0.004053
816.2870,0.003306
818.1507,0.002625
820.0143,0.002525
821.8780,0.002623
823.7417,0.002441
825.6053,0.002321
827.4690,0.002389
829.3327,0.002406
831.1963,0.002404
833.0600,0.002471
834.9237,0.002317
836.7873,0.002194
838.6510,0.002309
840.5147,0.002318
842.3784,0.002007
844.2420,0.001898
846.1057,0.001993
847.9694,0.002164
849.8330,0.002294
851.6967,0.002278
853.5604,0.002304
855.4240,0.002445
857.2877,0.002501
859.1514,0.002537
861.0150,0.002457
862.8787,0.002406
864.7424,0.002476
866.6060,0.002467
868.4697,0.002323
870.3334,0.002315
872.1971,0.002491
874.0607,0.002695
875.9244,0.002699
877.7881,0.002619
879.6517,0.002643
881.5154,0.002943
883.3791,0.003119
885.2427,0.003027
887.1064,0.002924
888.9701,0.002824
890.8337,0.002948
892.6974,0.003235
894.5611,0.003330
896.4247,0.003359
898.2884,0.003345
900.1521,0.003378
902.0158,0.003309
903.8794,0.003303
905.7431,0.003443
907.6068,0.003561
909.4704,0.003692
911.3341,0.003940
913.1978,0.004068
915.0614,0.004055
916.9251,0.004056
918.7888,0.004065
920.6524,0.004038
922.5161,0.004214
924.3798,0.004416
926.2435,0.004473
928.1071,0.004501
929.9708,0.004750
931.8345,0.004902
933.6981,0.004919
935.5618,0.005048
937.4255,0.005164
939.2891,0.005154
941.1528,0.005343
943.0165,0.005574
944.8801,0.005807
946.7438,0.005987
948.6075,0.006083
950.4711,0.006108
952.3348,0.006144
954.1985,0.006318
956.0622,0.006460
957.9258,0.006455
959.7895,0.006491
961.6532,0.006581
963.5168,0.006713
965.3805,0.006789
967.2442,0.006929
969.1078,0.007183
970.9715,0.007382
972.8352,0.007509
974.6988,0.007685
976.5625,0.007861
978.4262,0.008071
980.2899,0.008361
982.1535,0.008606
984.0172,0.008808
985.8809,0.009016
987.7445,0.009277
989.6082,0.009639
991.4719,0.009956
993.3355,0.010242
995.1992,0.010585
997.0629,0.010887
998.9265,0.011073
1000.7902,0.011397
1002.6539,0.011856
1004.5175,0.012162
1006.3812,0.012426
1008.2449,0.012746
1010.1086,0.013078
1011.9722,0.013515
1013.8359,0.014006
1015.6996,0.014490
1017.5632,0.014965
1019.4269,0.015484
1021.2906,0.016061
1023.1542,0.016677
1025.0179,0.017362
1026.8816,0.018164
1028.7452,0.018886
1030.6089,0.019662
1032.4726,0.020586
1034.3362,0.021575
1036.1999,0.022633
1038.0636,0.023690
1039.9273,0.024744
1041.7909,0.025927
1043.6546,0.027103
1045.5183,0.028372
1047.3819,0.029766
1049.2456,0.031281
1051.1093,0.032872
1052.9729,0.034509
1054.8366,0.036201
1056.7003,0.038073
1058.5639,0.040007
1060.4276,0.041973
1062.2913,0.043934
1064.1550,0.045760
1066.0186,0.047354
1067.8823,0.048853
1069.7460,0.050370
1071.6096,0.051987
1073.4733,0.053689
1075.3370,0.055261
1077.2006,0.056411
1079.0643,0.057217
1080.9280,0.057606
1082.7916,0.057500
1084.6553,0.057181
1086.5190,0.056748
1088.3826,0.055969
1090.2463,0.055044
1092.1100,0.053885
1093.9737,0.052569
1095.8373,0.051278
1097.7010,0.050006
1099.5647,0.048619
1101.4283,0.047163
1103.2920,0.045669
1105.1557,0.044265
1107.0193,0.042979
1108.8830,0.041734
1110.7467,0.040369
1112.6103,0.039064
1114.4740,0.037929
1116.3377,0.036866
1118.2014,0.035830
1120.0650,0.034745
1121.9287,0.033523
1123.7924,0.032367
1125.6560,0.031298
1127.5197,0.030226
1129.3834,0.029115
1131.2470,0.028093
1133.1107,0.027167
1134.9744,0.026375
1136.8380,0.025521
1138.7017,0.024592
1140.5654,0.023836
1142.4290,0.023222
1144.2927,0.022540
1146.1564,0.021826
1148.0201,0.021120
1149.8837,0.020521
1151.7474,0.019990
1153.6111,0.019562
1155.4747,0.019296
1157.3384,0.019316
1159.2021,0.019795
1161.0657,0.020623
1162.9294,0.021073
1164.7931,0.020733
1166.6567,0.019951
1168.5204,0.019146
1170.3841,0.018431
1172.2477,0.017853
1174.1114,0.017295
1175.9751,0.016827
1177.8388,0.016523
1179.7024,0.016315
1181.5661,0.016171
1183.4298,0.016113
1185.2934,0.016064
1187.1571,0.016053
1189.0208,0.016017
1190.8844,0.015856
1192.7481,0.015578
1194.6118,0.015404
1196.4754,0.015168
1198.3391,0.014817
1200.2028,0.014438
1202.0665,0.014050
1203.9301,0.013547
1205.7938,0.012946
1207.6575,0.012291
1209.5211,0.011612
1211.3848,0.010868
1213.2485,0.010093
1215.1121,0.009262
1216.9758,0.008415
1218.8395,0.007586
1220.7031,0.006932
1222.5668,0.006255
1224.4305,0.005592
1226.2941,0.005021
1228.1578,0.004527
1230.0215,0.004101
1231.8852,0.003836
1233.7488,0.003652
1235.6125,0.003470
1237.4762,0.003282
1239.3398,0.003130
1241.2035,0.002950
1243.0672,0.002810
1244.9308,0.002595
1246.7945,0.002345
1248.6582,0.002180
1250.5218,0.002106
1252.3855,0.002010
1254.2492,0.002011
1256.1129,0.001982
1257.9765,0.001905
1259.8402,0.001852
1261.7039,0.001711
1263.5675,0.001657
1265.4312,0.001733
1267.2949,0.001765
1269.1585,0.001721
1271.0222,0.001719
1272.8859,0.001648
1274.7495,0.001508
1276.6132,0.001440
1278.4769,0.001339
1280.3405,0.001232
1282.2042,0.001184
1284.0679,0.001164
1285.9316,0.001148
1287.7952,0.001260
1289.6589,0.001245
1291.5226,0.001133
1293.3862,0.001003
1295.2499,0.000964
1297.1136,0.000905
1298.9772,0.000832
1300.8409,0.000735
1302.7046,0.000740
1304.5682,0.000754
1306.4319,0.000837
1308.2956,0.000858
1310.1592,0.000726
1312.0229,0.000885
1313.8866,0.001190
1315.7503,0.001275
1317.6139,0.001426
1319.4776,0.001462
1321.3413,0.001059
1323.2049,0.000658
1325.0686,0.000541
1326.9323,0.000472
1328.7959,0.000457
1330.6596,0.000507
1332.5233,0.000541
1334.3869,0.000629
1336.2506,0.000951
1338.1143,0.001991
1339.9780,0.002837
1341.8416,0.001800
1343.7053,0.000741
1345.5690,0.000338
1347.4326,0.000471
1349.2963,0.000602
1351.1600,0.000600
1353.0236,0.000570
1354.8873,0.000701
1356.7510,0.000762
1358.6146,0.000698
1360.4783,0.000967
1362.3420,0.002408
1364.2056,0.002305
1366.0693,0.001049
1367.9330,0.000795
1369.7967,0.000879
1371.6603,0.000948
1373.5240,0.001833
1375.3877,0.001793
1377.2513,0.001319
1379.1150,0.001055
1380.9787,0.000867
1382.8423,0.000634
1384.7060,0.000463
1386.5697,0.001668
1388.4333,0.002107
1390.2970,0.001256
1392.1607,0.000715
1394.0244,0.002544
1395.8880,0.003527
1397.7517,0.003736
1399.6154,0.003330
1401.4790,0.001482
1403.3427,0.001106
1405.2064,0.001362
1407.0700,0.001148
1408.9337,0.000702
1410.7974,0.000846
1412.6610,0.000697
1414.5247,0.000781
1416.3884,0.001623
1418.2520,0.004261
1420.1157,0.004029
1421.9794,0.002315
1423.8431,0.002033
1425.7067,0.001236
1427.5704,0.000885
1429.4341,0.001146
1431.2977,0.001624
1433.1614,0.001015
1435.0251,0.001760
1436.8887,0.003722
1438.7524,0.002517
1440.6161,0.001221
1442.4797,0.000336
1444.3434,0.000392
1446.2071,0.001049
1448.0707,0.002053
1449.9344,0.001352
1451.7981,0.001205
1453.6618,0.000899
1455.5254,0.003631
1457.3891,0.006727
1459.2528,0.005746
1461.1164,0.002296
1462.9801,0.001030
1464.8438,0.001761
1466.7074,0.001719
1468.5711,0.000776
1470.4348,0.001358
1472.2984,0.005089
1474.1621,0.005855
1476.0258,0.004403
1477.8895,0.002133
1479.7531,0.001295
1481.6168,0.001001
1483.4805,0.000838
1485.3441,0.001200
1487.2078,0.002235
1489.0715,0.004517
1490.9351,0.004451
1492.7988,0.001967
1494.6625,0.001359
1496.5261,0.002745
1498.3898,0.003566
1500.2535,0.002806
1502.1171,0.001613
1503.9808,0.001061
1505.8445,0.005042
1507.7082,0.011139
1509.5718,0.008630
1511.4355,0.004660
1513.2992,0.002200
1515.1628,0.003258
1517.0265,0.005136
1518.8902,0.004890
1520.7538,0.006372
1522.6175,0.006702
1524.4812,0.006373
1526.3448,0.005047
1528.2085,0.003802
1530.0722,0.002506
1531.9359,0.002753
1533.7995,0.003487
1535.6632,0.002381
1537.5269,0.002735
1539.3905,0.005807
1541.2542,0.008703
1543.1179,0.007564
1544.9815,0.006192
1546.8452,0.002904
1548.7089,0.002248
1550.5725,0.002110
1552.4362,0.002275
1554.2999,0.002572
1556.1635,0.002811
1558.0272,0.006430
1559.8909,0.009086
1561.7546,0.005176
1563.6182,0.002625
1565.4819,0.001274
1567.3456,0.001305
1569.2092,0.002327
1571.0729,0.002256
1572.9366,0.001351
1574.8002,0.001600
1576.6639,0.003644
1578.5276,0.002852
1580.3912,0.001355
1582.2549,0.000438
1584.1186,0.000707
1585.9822,0.000638
1587.8459,0.000911
1589.7096,0.000963
1591.5733,0.001079
1593.4369,0.001136
1595.3006,0.001264
1597.1643,0.001018
1599.0279,0.000998
1600.8916,0.000973
1602.7553,0.001118
1604.6189,0.001025
1606.4826,0.001254
1608.3463,0.001541
1610.2099,0.001476
1612.0736,0.000909
1613.9373,0.000549
1615.8010,0.002184
1617.6646,0.003436
1619.5283,0.002402
1621.3920,0.001638
1623.2556,0.002584
1625.1193,0.002509
1626.9830,0.002001
1628.8466,0.001396
1630.7103,0.001138
1632.5740,0.000618
1634.4376,0.002992
1636.3013,0.005914
1638.1650,0.004895
1640.0286,0.002600
1641.8923,0.001055
1643.7560,0.000969
1645.6197,0.002718
1647.4833,0.004806
1649.3470,0.003281
1651.2107,0.002197
1653.0743,0.006200
1654.9380,0.007516
1656.8017,0.003895
1658.6653,0.000985
1660.5290,0.001030
1662.3927,0.002234
1664.2563,0.002171
1666.1200,0.001438
1667.9837,0.001990
1669.8474,0.004199
1671.7110,0.004180
1673.5747,0.002981
1675.4384,0.003086
1677.3020,0.002913
1679.1657,0.002663
1681.0294,0.001625
1682.8930,0.003703
1684.7567,0.005403
1686.6204,0.005200
1688.4840,0.003523
1690.3477,0.002237
1692.2114,0.001274
1694.0750,0.001566
1695.9387,0.003023
1697.8024,0.004045
1699.6661,0.006489
1701.5297,0.005440
1703.3934,0.004703
1705.2571,0.003409
1707.1207,0.003084
1708.9844,0.002253
1710.8481,0.001178
1712.7117,0.001360
1714.5754,0.002461
1716.4391,0.004903
1718.3027,0.006561
1720.1664,0.003921
1722.0301,0.002073
1723.8937,0.001141
1725.7574,0.000946
1727.6211,0.000531
1729.4848,0.001180
1731.3484,0.001703
1733.2121,0.004329
1735.0758,0.004743
1736.9394,0.003436
1738.8031,0.002346
1740.6668,0.002438
1742.5304,0.003051
1744.3941,0.002791
1746.2578,0.002978
1748.1214,0.003775
1749.9851,0.004243
1751.8488,0.003532
1753.7125,0.002019
1755.5761,0.001903
1757.4398,0.001759
1759.3035,0.001920
1761.1671,0.002087
1763.0308,0.002298
1764.8945,0.001494
1766.7581,0.001465
1768.6218,0.002087
1770.4855,0.002914
1772.3491,0.003854
1774.2128,0.004205
1776.0765,0.002931
1777.9401,0.001467
1779.8038,0.001712
1781.6675,0.001531
1783.5312,0.001787
1785.3948,0.001849
1787.2585,0.001562
1789.1222,0.001081
1790.9858,0.002523
1792.8495,0.003564
1794.7132,0.002941
1796.5768,0.001856
1798.4405,0.001391
1800.3042,0.002119
1802.1678,0.002644
1804.0315,0.002037
1805.8952,0.001119
1807.7589,0.000923
1809.6225,0.001489
1811.4862,0.001792
1813.3499,0.001273
1815.2135,0.000803
1817.0772,0.000921
1818.9409,0.001036
1820.8045,0.000863
1822.6682,0.001117
1824.5319,0.001698
1826.3955,0.001645
1828.2592,0.002122
1830.1229,0.002378
1831.9865,0.002323
1833.8502,0.001376
1835.7139,0.000852
1837.5776,0.001272
1839.4412,0.001234
1841.3049,0.000896
1843.1686,0.001332
1845.0322,0.002445
1846.8959,0.002852
1848.7596,0.001978
1850.6232,0.001064
1852.4869,0.000768
1854.3506,0.000830
1856.2142,0.000929
1858.0779,0.000643
1859.9416,0.001101
1861.8052,0.001191
1863.6689,0.001191
1865.5326,0.000971
1867.3963,0.001687
1869.2599,0.002898
1871.1236,0.002819
1872.9873,0.001395
1874.8509,0.000982
1876.7146,0.001228
1878.5783,0.001173
1880.4419,0.001078
1882.3056,0.000960
1884.1693,0.000765
1886.0329,0.000943
1887.8966,0.001137
1889.7603,0.001586
1891.6240,0.001780
1893.4876,0.001472
1895.3513,0.001273
1897.2150,0.001471
1899.0786,0.000849
1900.9423,0.000605
1902.8060,0.000747
1904.6696,0.000984
1906.5333,0.000941
1908.3970,0.001161
1910.2606,0.001272
1912.1243,0.001376
1913.9880,0.000916
1915.8516,0.000717
1917.7153,0.000935
1919.5790,0.001555
1921.4427,0.001649
1923.3063,0.001305
1925.1700,0.001092
1927.0337,0.000865
1928.8973,0.000873
1930.7610,0.001038
1932.6247,0.000932
1934.4883,0.001161
1936.3520,0.001072
1938.2157,0.000901
1940.0793,0.000694
1941.9430,0.001368
1943.8067,0.001982
1945.6704,0.002209
1947.5340,0.001624
1949.3977,0.001440
1951.2614,0.000744
1953.1250,0.000723
1954.9887,0.001061
1956.8524,0.001511
1958.7160,0.001476
1960.5797,0.000938
1962.4434,0.000327
1964.3070,0.000499
1966.1707,0.000994
1968.0344,0.000763
1969.8980,0.000114
1971.7617,0.001047
1973.6254,0.001570
1975.4891,0.001079
1977.3527,0.000933
1979.2164,0.001304
1981.0801,0.000722
1982.9437,0.000658
1984.8074,0.001492
1986.6711,0.001922
1988.5347,0.001351
1990.3984,0.002169
1992.2621,0.002636
1994.1257,0.001986
1995.9894,0.001175
1997.8531,0.001218
1999.7167,0.000677
2001.5804,0.000535
2003.4441,0.000682
2005.3078,0.000682
2007.1714,0.000506
2009.0351,0.000678
2010.8988,0.000676
2012.7624,0.001013
2014.6261,0.001347
2016.4898,0.001804
2018.3534,0.001360
2020.2171,0.000992
2022.0808,0.000992
2023.9444,0.000830
2025.8081,0.000650
2027.6718,0.001176
2029.5355,0.001213
2031.3991,0.001181
2033.2628,0.000448
2035.1265,0.000204
2036.9901,0.000939
2038.8538,0.001572
2040.7175,0.001184
2042.5811,0.001007
2044.4448,0.001041
2046.3085,0.001116
2048.1721,0.000849
2050.0358,0.000159
2051.8995,-0.000365
2053.7631,0.000439
2055.6268,0.001182
2057.4905,0.001317
2059.3542,0.000587
2061.2178,0.000001
2063.0815,0.000146
2064.9452,0.000821
2066.8088,0.000742
2068.6725,0.000128
2070.5362,-0.000207
2072.3998,0.000338
2074.2635,0.000286
2076.1272,0.000453
2077.9908,0.000676
2079.8545,0.000457
2081.7182,0.000558
2083.5819,0.000812
2085.4455,0.000350
2087.3092,0.000260
2089.1729,0.000318
2091.0365,0.000637
2092.9002,0.000529
2094.7639,0.000439
2096.6275,0.000196
2098.4912,0.000126
2100.3549,-0.000032
2102.2185,0.000045
2104.0822,0.000118
2105.9459,-0.000023
2107.8095,0.000053
2109.6732,0.000589
2111.5369,0.000639
2113.4006,0.000288
2115.2642,-0.000063
2117.1279,0.000020
2118.9916,0.000161
2120.8552,0.000237
2122.7189,0.000277
2124.5826,0.000207
2126.4462,0.000115
2128.3099,0.000378
2130.1736,0.000226
2132.0372,0.000204
2133.9009,0.000306
2135.7646,0.000495
2137.6282,0.000138
2139.4919,0.000251
2141.3556,0.000248
2143.2193,-0.000004
2145.0829,-0.000162
2146.9466,-0.000069
2148.8103,0.000069
2150.6739,0.000253
2152.5376,0.000144
2154.4013,0.000615
2156.2649,0.000423
2158.1286,0.000140
2159.9923,-0.000282
2161.8559,-0.000380
2163.7196,-0.000368
2165.5833,0.000109
2167.4470,0.000460
2169.3106,-0.000289
2171.1743,-0.000973
2173.0380,0.000189
2174.9016,0.000714
2176.7653,0.000422
2178.6290,0.000593
2180.4926,0.000791
2182.3563,0.000475
2184.2200,0.000423
2186.0836,-0.000382
2187.9473,-0.000745
2189.8110,-0.000573
2191.6746,-0.000059
2193.5383,0.000375
2195.4020,0.000707
2197.2657,0.000627
2199.1293,0.000237
2200.9930,0.000067
2202.8567,0.000672
2204.7203,0.000670
2206.5840,0.000514
2208.4477,0.000424
2210.3113,0.000741
2212.1750,0.000385
2214.0387,0.000042
2215.9023,0.000169
2217.7660,0.000465
2219.6297,0.000484
2221.4934,0.000975
2223.3570,0.000519
2225.2207,0.000184
2227.0844,0.000125
2228.9480,0.000459
2230.8117,0.000317
2232.6754,0.000227
2234.5390,0.000273
2236.4027,0.000385
2238.2664,0.000174
2240.1300,0.000385
2241.9937,0.000289
2243.8574,0.000389
2245.7210,0.000721
2247.5847,0.000887
2249.4484,0.000383
2251.3121,0.000265
2253.1757,0.000379
2255.0394,0.000422
2256.9031,0.000217
2258.7667,0.000243
2260.6304,0.000131
2262.4941,0.000391
2264.3577,0.000843
2266.2214,0.000772
2268.0851,0.000268
2269.9487,0.000243
2271.8124,0.000266
2273.6761,0.000258
2275.5397,0.000242
2277.4034,0.000421
2279.2671,0.000585
2281.1308,0.000770
2282.9944,0.000270
2284.8581,0.000185
2286.7218,0.000575
2288.5854,0.000977
2290.4491,0.000928
2292.3128,0.000737
2294.1764,0.000960
2296.0401,0.001533
2297.9038,0.001673
2299.7674,0.001619
2301.6311,0.001734
2303.4948,0.002272
2305.3585,0.002797
2307.2221,0.003341
2309.0858,0.003949
2310.9495,0.004333
2312.8131,0.004387
2314.6768,0.004626
2316.5405,0.004838
2318.4041,0.005455
2320.2678,0.006545
2322.1315,0.007709
2323.9951,0.008106
2325.8588,0.007960
2327.7225,0.007420
2329.5861,0.007789
2331.4498,0.008412
2333.3135,0.008387
2335.1772,0.008278
2337.0408,0.008549
2338.9045,0.008765
2340.7682,0.008851
2342.6318,0.009277
2344.4955,0.009916
2346.3592,0.008791
2348.2228,0.007420
2350.0865,0.006130
2351.9502,0.007283
2353.8138,0.010541
2355.6775,0.011332
2357.5412,0.009999
2359.4049,0.009856
2361.2685,0.010688
2363.1322,0.011029
2364.9959,0.010892
2366.8595,0.010492
2368.7232,0.010433
2370.5869,0.009918
2372.4505,0.008407
2374.3142,0.007348
2376.1779,0.006184
2378.0415,0.004844
2379.9052,0.003394
2381.7689,0.001951
2383.6325,0.001062
2385.4962,0.000853
2387.3599,0.000454
2389.2236,0.000123
2391.0872,-0.000111
2392.9509,-0.000382
2394.8146,-0.000435
2396.6782,-0.000211
2398.5419,-0.000213
2400.4056,-0.000077
2402.2692,-0.000195
2404.1329,-0.000198
2405.9966,-0.000014
2407.8602,0.000155
2409.7239,-0.000196
2411.5876,-0.000403
2413.4512,-0.000384
2415.3149,-0.000269
2417.1786,-0.000348
2419.0423,-0.000425
2420.9059,-0.000175
2422.7696,0.000007
2424.6333,-0.000683
2426.4969,-0.000820
2428.3606,-0.000621
2430.2243,-0.000655
2432.0879,-0.000485
2433.9516,-0.000310
2435.8153,-0.000131
2437.6789,-0.000077
2439.5426,-0.000458
2441.4063,-0.000579
2443.2700,-0.000495
2445.1336,-0.000641
2446.9973,-0.000695
2448.8610,-0.000365
2450.7246,0.000027
2452.5883,0.000090
2454.4520,-0.000368
2456.3156,-0.000269
2458.1793,-0.000225
2460.0430,-0.000402
2461.9066,-0.000421
2463.7703,-0.000583
2465.6340,-0.000884
2467.4976,-0.000895
2469.3613,-0.000441
2471.2250,-0.000038
2473.0887,-0.000092
2474.9523,-0.000478
2476.8160,-0.000538
2478.6797,-0.000233
2480.5433,-0.000165
2482.4070,-0.000187
2484.2707,-0.000422
2486.1343,-0.000258
2487.9980,-0.000199
2489.8617,-0.000541
2491.7253,-0.000546
2493.5890,-0.000531
2495.4527,-0.000566
2497.3164,-0.000125
2499.1800,-0.000028
2501.0437,-0.000240
2502.9074,-0.000311
2504.7710,-0.000233
2506.6347,-0.000361
2508.4984,-0.000234
2510.3620,-0.000286
2512.2257,-0.000264
2514.0894,-0.000003
2515.9530,0.000007
2517.8167,-0.000570
2519.6804,-0.000580
2521.5440,-0.000347
2523.4077,-0.000143
2525.2714,-0.000209
2527.1351,-0.000407
2528.9987,-0.000177
2530.8624,-0.000030
2532.7261,-0.000131
2534.5897,-0.000136
2536.4534,-0.000524
2538.3171,-0.000459
2540.1807,-0.000469
2542.0444,-0.000595
2543.9081,-0.000381
2545.7717,0.000101
2547.6354,0.000128
2549.4991,-0.000256
2551.3627,-0.000212
2553.2264,-0.000194
2555.0901,-0.000424
2556.9538,-0.000545
2558.8174,-0.000296
2560.6811,-0.000020
2562.5448,-0.000483
2564.4084,-0.000565
2566.2721,-0.000286
2568.1358,-0.000241
2569.9994,-0.000472
2571.8631,-0.000698
2573.7268,-0.000914
2575.5904,-0.000805
2577.4541,-0.000583
2579.3178,-0.000785
2581.1815,-0.000800
2583.0451,-0.000649
2584.9088,-0.000543
2586.7725,-0.000187
2588.6361,-0.000292
2590.4998,-0.000422
2592.3635,-0.000238
2594.2271,-0.000144
2596.0908,-0.000777
2597.9545,-0.000956
2599.8181,-0.000784
2601.6818,-0.000597
2603.5455,-0.000367
2605.4091,-0.000297
2607.2728,-0.000407
2609.1365,-0.000522
2611.0002,-0.000883
2612.8638,-0.001279
2614.7275,-0.000990
2616.5912,-0.000668
2618.4548,-0.000855
2620.3185,-0.000949
2622.1822,-0.000824
2624.0458,-0.000865
2625.9095,-0.000967
2627.7732,-0.000829
2629.6368,-0.000715
2631.5005,-0.000835
2633.3642,-0.000935
2635.2279,-0.000865
2637.0915,-0.000910
2638.9552,-0.000585
2640.8189,-0.000397
2642.6825,-0.000405
2644.5462,-0.000611
2646.4099,-0.000625
2648.2735,-0.000579
2650.1372,-0.000836
2652.0009,-0.000953
2653.8645,-0.000791
2655.7282,-0.000833
2657.5919,-0.000921
2659.4555,-0.000823
2661.3192,-0.000732
2663.1829,-0.000751
2665.0466,-0.000572
2666.9102,-0.000589
2668.7739,-0.000958
2670.6376,-0.001154
2672.5012,-0.001025
2674.3649,-0.000944
2676.2286,-0.001035
2678.0922,-0.001057
2679.9559,-0.000911
2681.8196,-0.000933
2683.6832,-0.000823
2685.5469,-0.000776
2687.4106,-0.000886
2689.2742,-0.000841
2691.1379,-0.000811
2693.0016,-0.000892
2694.8653,-0.000940
2696.7289,-0.000724
2698.5926,-0.000558
2700.4563,-0.000871
2702.3199,-0.000987
2704.1836,-0.000869
2706.0473,-0.000813
2707.9109,-0.000825
2709.7746,-0.001108
2711.6383,-0.001407
2713.5019,-0.001119
2715.3656,-0.001098
2717.2293,-0.001200
2719.0930,-0.001013
2720.9566,-0.000625
2722.8203,-0.000726
2724.6840,-0.001162
2726.5476,-0.001072
2728.4113,-0.000806
2730.2750,-0.001017
2732.1386,-0.001127
2734.0023,-0.000927
2735.8660,-0.001071
2737.7296,-0.001080
2739.5933,-0.000785
2741.4570,-0.000713
2743.3206,-0.000930
2745.1843,-0.001237
2747.0480,-0.001185
2748.9117,-0.001034
2750.7753,-0.001116
2752.6390,-0.001070
2754.5027,-0.000833
2756.3663,-0.000934
2758.2300,-0.001070
2760.0937,-0.001176
2761.9573,-0.001300
2763.8210,-0.001286
2765.6847,-0.001123
2767.5483,-0.000965
2769.4120,-0.000879
2771.2757,-0.000964
2773.1394,-0.001312
2775.0030,-0.001317
2776.8667,-0.000802
2778.7304,-0.000827
2780.5940,-0.001215
2782.4577,-0.001158
2784.3214,-0.001151
2786.1850,-0.000981
2788.0487,-0.000737
2789.9124,-0.000906
2791.7760,-0.001051
2793.6397,-0.001118
2795.5034,-0.001199
2797.3670,-0.001146
2799.2307,-0.001315
2801.0944,-0.001613
2802.9581,-0.001618
2804.8217,-0.001253
2806.6854,-0.000936
2808.5491,-0.001222
2810.4127,-0.001367
2812.2764,-0.001267
2814.1401,-0.001324
2816.0037,-0.001613
2817.8674,-0.001689
2819.7311,-0.001380
2821.5947,-0.001296
2823.4584,-0.001374
2825.3221,-0.001051
2827.1857,-0.001010
2829.0494,-0.001324
2830.9131,-0.001512
2832.7768,-0.001677
2834.6404,-0.001690
2836.5041,-0.001211
2838.3678,-0.001259
2840.2314,-0.001590
2842.0951,-0.001742
2843.9588,-0.001743
2845.8224,-0.001737
2847.6861,-0.001528
2849.5498,-0.001494
2851.4134,-0.001332
2853.2771,-0.001144
2855.1408,-0.001086
2857.0045,-0.001272
2858.8681,-0.001422
2860.7318,-0.001712
2862.5955,-0.001607
2864.4591,-0.001331
2866.3228,-0.001314
2868.1865,-0.001979
2870.0501,-0.002248
2871.9138,-0.001578
2873.7775,-0.001224
2875.6411,-0.001362
2877.5048,-0.001432
2879.3685,-0.001528
2881.2321,-0.001590
2883.0958,-0.001587
2884.9595,-0.001424
2886.8232,-0.001320
2888.6868,-0.001255
2890.5505,-0.001655
2892.4142,-0.001935
2894.2778,-0.001937
2896.1415,-0.001615
2898.0052,-0.001599
2899.8688,-0.001810
2901.7325,-0.001560
2903.5962,-0.001082
2905.4598,-0.001377
2907.3235,-0.001928
2909.1872,-0.002121
2911.0509,-0.002137
2912.9145,-0.002469
2914.7782,-0.002306
2916.6419,-0.001879
2918.5055,-0.001617
2920.3692,-0.001733
2922.2329,-0.001856
2924.0965,-0.001838
2925.9602,-0.001618
2927.8239,-0.001288
2929.6875,-0.001326
2931.5512,-0.001525
2933.4149,-0.001602
2935.2785,-0.001809
2937.1422,-0.001921
2939.0059,-0.001760
2940.8696,-0.001742
2942.7332,-0.002155
2944.5969,-0.002214
2946.4606,-0.001878
2948.3242,-0.001656
2950.1879,-0.001892
2952.0516,-0.001768
2953.9152,-0.001741
2955.7789,-0.001836
2957.6426,-0.001914
2959.5062,-0.001980
2961.3699,-0.001891
2963.2336,-0.001735
2965.0972,-0.002082
2966.9609,-0.001982
2968.8246,-0.001639
2970.6883,-0.001788
2972.5519,-0.002169
2974.4156,-0.002173
2976.2793,-0.001938
2978.1429,-0.002001
2980.0066,-0.002294
2981.8703,-0.002157
2983.7339,-0.002051
2985.5976,-0.002226
2987.4613,-0.002282
2989.3249,-0.002156
2991.1886,-0.002695
2993.0523,-0.002546
2994.9160,-0.002007
2996.7796,-0.002111
2998.6433,-0.002227
3000.5070,-0.002298
3002.3706,-0.002047
3004.2343,-0.001886
3006.0980,-0.002358
3007.9616,-0.002472
3009.8253,-0.001848
3011.6890,-0.001683
3013.5526,-0.002156
3015.4163,-0.002295
3017.2800,-0.002510
3019.1436,-0.002660
3021.0073,-0.003004
3022.8710,-0.002433
3024.7347,-0.001914
3026.5983,-0.002194
3028.4620,-0.002562
3030.3257,-0.002184
3032.1893,-0.001941
3034.0530,-0.002268
3035.9167,-0.002993
3037.7803,-0.003160
3039.6440,-0.003077
3041.5077,-0.002639
3043.3713,-0.002160
3045.2350,-0.002146
3047.0987,-0.002583
3048.9624,-0.002367
3050.8260,-0.002139
3052.6897,-0.002361
3054.5534,-0.002380
3056.4170,-0.002117
3058.2807,-0.001983
3060.1444,-0.002218
3062.0080,-0.002761
3063.8717,-0.002630
3065.7354,-0.002593
3067.5990,-0.002873
3069.4627,-0.002819
3071.3264,-0.002620
3073.1900,-0.002545
3075.0537,-0.002639
3076.9174,-0.003086
3078.7811,-0.002970
3080.6447,-0.002400
3082.5084,-0.002118
3084.3721,-0.002076
3086.2357,-0.002205
3088.0994,-0.002557
3089.9631,-0.002715
3091.8267,-0.002828
3093.6904,-0.003404
3095.5541,-0.003229
3097.4177,-0.002558
3099.2814,-0.002686
3101.1451,-0.002679
3103.0087,-0.002803
3104.8724,-0.002658
3106.7361,-0.002371
3108.5998,-0.002406
3110.4634,-0.003252
3112.3271,-0.003505
3114.1908,-0.003424
3116.0544,-0.003215
3117.9181,-0.003183
3119.7818,-0.002793
3121.6454,-0.002403
3123.5091,-0.002498
3125.3728,-0.002521
3127.2364,-0.002564
3129.1001,-0.002421
3130.9638,-0.002606
3132.8275,-0.002929
3134.6911,-0.002791
3136.5548,-0.002687
3138.4185,-0.003267
3140.2821,-0.003978
3142.1458,-0.003752
3144.0095,-0.002841
3145.8731,-0.002206
3147.7368,-0.002333
3149.6005,-0.003326
3151.4641,-0.003532
3153.3278,-0.003185
3155.1915,-0.003168
3157.0551,-0.003248
3158.9188,-0.003525
3160.7825,-0.003364
3162.6462,-0.002683
3164.5098,-0.002516
3166.3735,-0.003322
3168.2372,-0.003500
3170.1008,-0.002954
3171.9645,-0.002705
3173.8282,-0.003963
3175.6918,-0.004101
3177.5555,-0.003460
3179.4192,-0.003501
3181.2828,-0.003840
3183.1465,-0.003507
3185.0102,-0.002980
3186.8739,-0.002714
3188.7375,-0.003081
3190.6012,-0.003325
3192.4649,-0.003546
3194.3285,-0.003260
3196.1922,-0.003030
3198.0559,-0.002416
3199.9195,-0.002084
3201.7832,-0.003146
3203.6469,-0.004267
3205.5105,-0.003915
3207.3742,-0.003558
3209.2379,-0.003477
3211.1015,-0.003320
3212.9652,-0.002837
3214.8289,-0.003049
3216.6926,-0.003238
3218.5562,-0.003503
3220.4199,-0.003276
3222.2836,-0.003535
3224.1472,-0.003512
3226.0109,-0.003492
3227.8746,-0.003710
3229.7382,-0.003614
3231.6019,-0.004052
3233.4656,-0.004856
3235.3292,-0.005017
3237.1929,-0.004576
3239.0566,-0.003665
3240.9202,-0.003898
3242.7839,-0.004194
3244.6476,-0.004170
3246.5113,-0.003786
3248.3749,-0.003897
3250.2386,-0.003900
3252.1023,-0.003665
3253.9659,-0.003783
3255.8296,-0.004245
3257.6933,-0.004459
3259.5569,-0.003975
3261.4206,-0.003122
3263.2843,-0.003242
3265.1479,-0.003727
3267.0116,-0.004899
3268.8753,-0.005105
3270.7390,-0.003895
3272.6026,-0.003289
3274.4663,-0.003494
3276.3300,-0.003749
3278.1936,-0.004120
3280.0573,-0.003490
3281.9210,-0.003199
3283.7846,-0.003414
3285.6483,-0.004174
3287.5120,-0.004672
3289.3756,-0.004019
3291.2393,-0.003659
3293.1030,-0.004353
3294.9666,-0.004256
3296.8303,-0.004474
3298.6940,-0.004163
3300.5577,-0.004075
3302.4213,-0.004293
3304.2850,-0.004298
3306.1487,-0.004094
3308.0123,-0.004073
3309.8760,-0.003930
3311.7397,-0.003884
3313.6033,-0.003925
3315.4670,-0.004815
3317.3307,-0.004782
3319.1943,-0.004414
3321.0580,-0.004043
3322.9217,-0.004334
3324.7854,-0.004790
3326.6490,-0.004720
3328.5127,-0.004460
3330.3764,-0.003985
3332.2400,-0.003504
3334.1037,-0.003898
3335.9674,-0.004285
3337.8310,-0.004801
3339.6947,-0.005071
3341.5584,-0.004387
3343.4220,-0.004229
3345.2857,-0.004737
3347.1494,-0.004083
3349.0130,-0.003778
3350.8767,-0.004229
3352.7404,-0.005188
3354.6041,-0.005431
3356.4677,-0.005301
3358.3314,-0.004421
3360.1951,-0.004308
3362.0587,-0.005136
3363.9224,-0.005381
3365.7861,-0.005047
3367.6497,-0.004882
3369.5134,-0.004468
3371.3771,-0.004420
3373.2407,-0.003871
3375.1044,-0.003539
3376.9681,-0.004310
3378.8317,-0.004575
3380.6954,-0.004120
3382.5591,-0.004360
3384.4228,-0.004786
3386.2864,-0.004232
3388.1501,-0.003442
3390.0138,-0.004049
3391.8774,-0.004969
3393.7411,-0.005600
3395.6048,-0.004206
3397.4684,-0.003613
3399.3321,-0.004089
3401.1958,-0.004794
3403.0594,-0.005446
3404.9231,-0.004704
3406.7868,-0.004384
3408.6505,-0.004483
3410.5141,-0.003949
3412.3778,-0.004374
3414.2415,-0.004849
3416.1051,-0.005664
3417.9688,-0.005280
3419.8325,-0.004760
3421.6961,-0.004876
3423.5598,-0.004362
3425.4235,-0.004054
3427.2871,-0.004066
3429.1508,-0.003685
3431.0145,-0.004114
3432.8781,-0.005305
3434.7418,-0.006091
3436.6055,-0.004842
3438.4692,-0.004709
3440.3328,-0.004323
3442.1965,-0.004803
3444.0602,-0.005024
3445.9238,-0.004699
3447.7875,-0.004054
3449.6512,-0.004414
3451.5148,-0.004397
3453.3785,-0.003980
3455.2422,-0.003896
3457.1058,-0.004675
3458.9695,-0.004174
3460.8332,-0.003463
3462.6969,-0.004342
3464.5605,-0.005349
3466.4242,-0.004348
3468.2879,-0.003094
3470.1515,-0.003875
3472.0152,-0.005302
3473.8789,-0.005122
3475.7425,-0.004692
3477.6062,-0.004401
3479.4699,-0.005111
3481.3335,-0.005238
3483.1972,-0.004102
3485.0609,-0.003812
3486.9245,-0.003220
3488.7882,-0.003331
3490.6519,-0.005237
3492.5156,-0.004540
3494.3792,-0.003431
3496.2429,-0.004322
3498.1066,-0.004786
3499.9702,-0.004080
3501.8339,-0.004152
3503.6976,-0.003335
3505.5612,-0.002380
3507.4249,-0.003672
3509.2886,-0.003953
3511.1522,-0.003268
3513.0159,-0.003044
3514.8796,-0.003441
3516.7432,-0.003922
3518.6069,-0.004092
3520.4706,-0.004035
3522.3343,-0.003661
3524.1979,-0.004265
3526.0616,-0.003535
3527.9253,-0.003807
3529.7889,-0.004593
3531.6526,-0.004471
3533.5163,-0.003242
3535.3799,-0.003375
3537.2436,-0.004411
3539.1073,-0.004686
3540.9709,-0.004476
3542.8346,-0.005469
3544.6983,-0.004150
3546.5620,-0.002395
3548.4256,-0.003164
3550.2893,-0.004275
3552.1530,-0.003539
3554.0166,-0.003669
3555.8803,-0.004800
3557.7440,-0.004677
3559.6076,-0.005675
3561.4713,-0.006697
3563.3350,-0.005205
3565.1986,-0.003530
3567.0623,-0.002308
3568.9260,-0.000124
3570.7896,-0.001302
3572.6533,-0.004249
3574.5170,-0.003621
3576.3807,-0.003185
3578.2443,-0.004445
3580.1080,-0.004886
3581.9717,-0.004289
3583.8353,-0.003860
3585.6990,-0.003735
3587.5627,-0.003238
3589.4263,-0.001069
3591.2900,-0.002082
3593.1537,-0.002349
3595.0173,-0.001033
3596.8810,-0.001542
3598.7447,-0.002591
3600.6084,-0.003524
3602.4720,-0.004565
3604.3357,-0.004094
3606.1994,-0.003339
3608.0630,-0.002184
3609.9267,-0.000458
3611.7904,-0.000357
3613.6540,-0.000503
3615.5177,-0.000571
3617.3814,-0.003174
3619.2450,-0.002474
3621.1087,-0.001543
3622.9724,-0.002307
3624.8360,-0.003961
3626.6997,-0.004285
3628.5634,-0.003326
3630.4271,0.000242
3632.2907,-0.000428
3634.1544,-0.003092
3636.0181,-0.003642
3637.8817,-0.004515
3639.7454,-0.003424
3641.6091,-0.003340
3643.4727,-0.004027
3645.3364,-0.004287
3647.2001,-0.003939
3649.0637,0.000342
3650.9274,0.002039
3652.7911,-0.000368
3654.6547,-0.003342
3656.5184,-0.003431
3658.3821,-0.001987
3660.2458,-0.003423
3662.1094,-0.003984
3663.9731,-0.004070
3665.8368,-0.005043
3667.7004,-0.005449
3669.5641,-0.004213
3671.4278,-0.001780
3673.2914,-0.001279
3675.1551,-0.002836
3677.0188,0.000450
3678.8824,-0.000786
3680.7461,-0.003453
3682.6098,-0.004305
3684.4735,-0.004965
3686.3371,-0.004285
3688.2008,-0.004322
3690.0645,-0.001130
3691.9281,-0.000323
3693.7918,-0.000896
3695.6555,-0.002673
3697.5191,-0.003205
3699.3828,-0.003707
3701.2465,-0.003981
3703.1101,-0.003112
3704.9738,-0.003066
3706.8375,-0.004110
3708.7011,-0.004624
3710.5648,-0.003839
3712.4285,-0.000819
3714.2922,0.000153
3716.1558,-0.001822
3718.0195,-0.004118
3719.8832,-0.003636
3721.7468,-0.002463
3723.6105,-0.001128
3725.4742,-0.001131
3727.3378,-0.001010
3729.2015,-0.002159
3731.0652,-0.004086
3732.9288,-0.003433
3734.7925,-0.000618
3736.6562,0.000627
3738.5199,0.000388
3740.3835,-0.002416
3742.2472,-0.002579
3744.1109,-0.002970
3745.9745,0.001799
3747.8382,0.000747
3749.7019,-0.001375
3751.5655,0.000620
3753.4292,0.000285
3755.2929,-0.001005
3757.1565,-0.003188
3759.0202,-0.002900
3760.8839,-0.003279
3762.7475,-0.003454
3764.6112,-0.004529
3766.4749,-0.003738
3768.3386,-0.004152
3770.2022,-0.004593
3772.0659,-0.003304
3773.9296,-0.004079
3775.7932,-0.005577
3777.6569,-0.005949
3779.5206,-0.004845
3781.3842,-0.002733
3783.2479,-0.003130
3785.1116,-0.004119
3786.9752,-0.003706
3788.8389,-0.004465
3790.7026,-0.005677
3792.5662,-0.006009
3794.4299,-0.005450
3796.2936,-0.004494
3798.1573,-0.002146
3800.0209,-0.001683
3801.8846,-0.001534
3803.7483,-0.001500
3805.6119,-0.004545
3807.4756,-0.004234
3809.3393,-0.001948
3811.2029,-0.003686
3813.0666,-0.005137
3814.9303,-0.005691
3816.7939,-0.003805
3818.6576,-0.001367
3820.5213,-0.002548
3822.3850,-0.000374
3824.2486,-0.001495
3826.1123,-0.004075
3827.9760,-0.003098
3829.8396,-0.003136
3831.7033,-0.004520
3833.5670,-0.004650
3835.4306,-0.004334
3837.2943,-0.002667
3839.1580,-0.001764
3841.0216,-0.000840
3842.8853,-0.001936
3844.7490,-0.002943
3846.6126,-0.003909
3848.4763,-0.005348
3850.3400,-0.005361
3852.2037,-0.004443
3854.0673,-0.001192
3855.9310,0.001992
3857.7947,-0.001044
3859.6583,-0.003184
3861.5220,-0.004713
3863.3857,-0.003724
3865.2493,-0.002666
3867.1130,-0.000992
3868.9767,-0.002822
3870.8403,-0.000921
3872.7040,-0.000643
3874.5677,-0.002609
3876.4314,-0.002141
3878.2950,-0.004849
3880.1587,-0.005594
3882.0224,-0.003714
3883.8860,-0.002379
3885.7497,-0.002840
3887.6134,-0.002842
3889.4770,-0.004226
3891.3407,-0.004148
3893.2044,-0.002660
3895.0680,-0.003279
3896.9317,-0.004186
3898.7954,-0.004776
3900.6590,-0.002905
3902.5227,-0.001174
3904.3864,-0.001712
3906.2501,-0.002021
3908.1137,-0.002823
3909.9774,-0.004025
3911.8411,-0.005180
3913.7047,-0.005301
3915.5684,-0.004621
3917.4321,-0.004180
3919.2957,-0.004281
3921.1594,-0.003974
3923.0231,-0.003902
3924.8867,-0.004356
3926.7504,-0.004180
3928.6141,-0.005250
3930.4777,-0.005317
3932.3414,-0.004891
3934.2051,-0.004209
3936.0688,-0.004419
3937.9324,-0.005024
3939.7961,-0.005234
3941.6598,-0.005375
3943.5234,-0.004995
3945.3871,-0.004994
3947.2508,-0.004653
3949.1144,-0.004513
3950.9781,-0.004869
3952.8418,-0.005281
3954.7054,-0.005626
3956.5691,-0.005369
3958.4328,-0.004886
3960.2965,-0.005119
3962.1601,-0.005436
3964.0238,-0.005325
3965.8875,-0.005286
3967.7511,-0.005412
3969.6148,-0.005202
3971.4785,-0.004975
3973.3421,-0.004732
3975.2058,-0.004413
3977.0695,-0.004589
3978.9331,-0.005182
3980.7968,-0.005743
3982.6605,-0.006083
3984.5241,-0.005922
3986.3878,-0.005764
3988.2515,-0.005630
3990.1152,-0.005520
3991.9788,-0.005414
3993.8425,-0.006025
3995.7062,-0.005690
3997.5698,-0.004981
3999.4335,-0.005031
4001.2972,-0.005982
4003.1608,-0.006497
4005.0245,-0.006250
4006.8882,-0.005817
4008.7518,-0.005680
4010.6155,-0.005059
4012.4792,-0.004745
4014.3429,-0.005474
4016.2065,-0.005663
4018.0702,-0.005146
4019.9339,-0.005232
4021.7975,-0.006049
4023.6612,-0.006474
4025.5249,-0.005573
4027.3885,-0.006490
4029.2522,-0.007158
4031.1159,-0.005486
4032.9795,-0.004689
4034.8432,-0.005131
4036.7069,-0.005281
4038.5705,-0.004980
4040.4342,-0.005138
4042.2979,-0.005511
4044.1616,-0.004930
4046.0252,-0.005022
4047.8889,-0.006188
4049.7526,-0.006605
4051.6162,-0.006025
4053.4799,-0.005435
4055.3436,-0.005124
4057.2072,-0.005599
4059.0709,-0.006276
4060.9346,-0.006433
4062.7982,-0.006214
4064.6619,-0.006185
4066.5256,-0.005881
4068.3892,-0.005425
4070.2529,-0.005396
4072.1166,-0.005592
4073.9803,-0.005582
4075.8439,-0.005573
4077.7076,-0.005359
4079.5713,-0.005592
4081.4349,-0.006077
4083.2986,-0.006124
4085.1623,-0.006434
4087.0259,-0.007036
4088.8896,-0.006332
4090.7533,-0.005691
4092.6169,-0.005848
4094.4806,-0.005905
4096.3443,-0.005614
4098.2080,-0.005764
4100.0716,-0.005539
